scansci Spectrometer Data File
--- Measurement Setting ---
Type: Sample Spectrum
Date: Wed May 26 15:25:04 2021
User: (Reserved by scansci)
Serial: (Reserved by scansci)
Channel: No. 11
Integration Time: 282
Average: 1
Boxcar: 0
Electrical Dark: No-corrected
Time Normalize: (Reserved by scansci)
Dual-beam: (Reserved by scansci)
Reference Ch: (Reserved by scansci)
--- Measurement Data ---
Pixel   Wavelength   Intensity
    0        162.5          913
    1      162.985          916
    2      163.469          909
    3      163.954          907
    4      164.439          915
    5      164.923          922
    6      165.408          918
    7      165.892          908
    8      166.377          907
    9      166.861          920
   10      167.345          925
   11       167.83          921
   12      168.314          913
   13      168.798          905
   14      169.282          902
   15      169.766          902
   16       170.25          897
   17      170.734          895
   18      171.218          893
   19      171.702          886
   20      172.185          887
   21      172.669          898
   22      173.153          900
   23      173.636          905
   24       174.12          912
   25      174.603          940
   26      175.087          954
   27       175.57          939
   28      176.053          935
   29      176.537          931
   30       177.02          919
   31      177.503          908
   32      177.986          899
   33      178.469          904
   34      178.952          924
   35      179.435          923
   36      179.918          919
   37      180.401          918
   38      180.884          897
   39      181.366          882
   40      181.849          882
   41      182.332          881
   42      182.814          888
   43      183.297          893
   44      183.779          894
   45      184.262          892
   46      184.744          892
   47      185.226          893
   48      185.708          899
   49      186.191          911
   50      186.673          908
   51      187.155          901
   52      187.637          901
   53      188.119          900
   54        188.6          902
   55      189.082          907
   56      189.564          913
   57      190.046          908
   58      190.527          902
   59      191.009          894
   60      191.491          900
   61      191.972          915
   62      192.454          915
   63      192.935          910
   64      193.416          908
   65      193.897          920
   66      194.379          941
   67       194.86          934
   68      195.341          922
   69      195.822          916
   70      196.303          905
   71      196.784          915
   72      197.265          919
   73      197.746          909
   74      198.226          903
   75      198.707          904
   76      199.188          917
   77      199.668          925
   78      200.149          925
   79      200.629          927
   80       201.11          921
   81       201.59          921
   82       202.07          922
   83       202.55          923
   84      203.031          918
   85      203.511          912
   86      203.991          910
   87      204.471          905
   88      204.951          907
   89      205.431          909
   90       205.91          908
   91       206.39          909
   92       206.87          904
   93      207.349          900
   94      207.829          906
   95      208.309          912
   96      208.788          909
   97      209.267          897
   98      209.747          898
   99      210.226          897
  100      210.705          899
  101      211.185          906
  102      211.664          907
  103      212.143          905
  104      212.622          897
  105      213.101          893
  106      213.579          896
  107      214.058          900
  108      214.537          908
  109      215.016          913
  110      215.494          915
  111      215.973          921
  112      216.452          921
  113       216.93          914
  114      217.408          913
  115      217.887          908
  116      218.365          906
  117      218.843          910
  118      219.321          911
  119      219.799          913
  120      220.278          909
  121      220.755          916
  122      221.233          919
  123      221.711          916
  124      222.189          917
  125      222.667          909
  126      223.144          903
  127      223.622          896
  128        224.1          901
  129      224.577          920
  130      225.055          924
  131      225.532          917
  132      226.009          910
  133      226.486          902
  134      226.964          901
  135      227.441          897
  136      227.918          899
  137      228.395          904
  138      228.872          908
  139      229.349          905
  140      229.826          904
  141      230.302          904
  142      230.779          900
  143      231.256          906
  144      231.732          907
  145      232.209          901
  146      232.685          901
  147      233.162          901
  148      233.638          905
  149      234.114          904
  150       234.59          901
  151      235.066          905
  152      235.543          911
  153      236.019          912
  154      236.495          916
  155       236.97          918
  156      237.446          919
  157      237.922          920
  158      238.398          916
  159      238.873          912
  160      239.349          913
  161      239.824          912
  162        240.3          912
  163      240.775          905
  164      241.251          901
  165      241.726          905
  166      242.201          905
  167      242.676          909
  168      243.151          912
  169      243.626          912
  170      244.101          913
  171      244.576          909
  172      245.051          903
  173      245.526          902
  174          246          898
  175      246.475          902
  176       246.95          905
  177      247.424          901
  178      247.899          905
  179      248.373          909
  180      248.847          915
  181      249.321          917
  182      249.796          908
  183       250.27          905
  184      250.744          902
  185      251.218          901
  186      251.692          902
  187      252.166          908
  188      252.639          920
  189      253.113          915
  190      253.587          902
  191       254.06          897
  192      254.534          900
  193      255.007          904
  194      255.481          904
  195      255.954          909
  196      256.427          909
  197      256.901          903
  198      257.374          908
  199      257.847          906
  200       258.32          903
  201      258.793          906
  202      259.266          905
  203      259.739          904
  204      260.211          902
  205      260.684          912
  206      261.157          920
  207      261.629          913
  208      262.102          908
  209      262.574          902
  210      263.046          908
  211      263.519          914
  212      263.991          916
  213      264.463          913
  214      264.935          913
  215      265.407          915
  216      265.879          918
  217      266.351          922
  218      266.823          909
  219      267.295          892
  220      267.766          888
  221      268.238          893
  222       268.71          893
  223      269.181          903
  224      269.653          912
  225      270.124          909
  226      270.595          901
  227      271.066          899
  228      271.538          901
  229      272.009          897
  230       272.48          898
  231      272.951          902
  232      273.422          907
  233      273.892          910
  234      274.363          915
  235      274.834          911
  236      275.305          905
  237      275.775          904
  238      276.246          899
  239      276.716          892
  240      277.186          903
  241      277.657          917
  242      278.127          914
  243      278.597          909
  244      279.067          908
  245      279.537          917
  246      280.007          914
  247      280.477          908
  248      280.947          907
  249      281.417          907
  250      281.886          904
  251      282.356          899
  252      282.825          906
  253      283.295          909
  254      283.764          912
  255      284.234          913
  256      284.703          914
  257      285.172          915
  258      285.641          913
  259       286.11          899
  260      286.579          891
  261      287.048          894
  262      287.517          895
  263      287.986          897
  264      288.454          904
  265      288.923          908
  266      289.392          911
  267       289.86          910
  268      290.329          905
  269      290.797          895
  270      291.265          901
  271      291.734          904
  272      292.202          893
  273       292.67          897
  274      293.138          903
  275      293.606          900
  276      294.074          897
  277      294.541          900
  278      295.009          903
  279      295.477          906
  280      295.944          906
  281      296.412          909
  282      296.879          907
  283      297.347          904
  284      297.814          901
  285      298.281          902
  286      298.749          914
  287      299.216          919
  288      299.683          908
  289       300.15          905
  290      300.616          907
  291      301.083          904
  292       301.55          908
  293      302.017          919
  294      302.483          926
  295       302.95          923
  296      303.416          912
  297      303.883          911
  298      304.349          915
  299      304.815          911
  300      305.281          907
  301      305.748          913
  302      306.214          911
  303       306.68          910
  304      307.146          912
  305      307.611          917
  306      308.077          923
  307      308.543          926
  308      309.008          919
  309      309.474          914
  310      309.939          916
  311      310.405          914
  312       310.87          913
  313      311.335          925
  314        311.8          969
  315      312.266         1065
  316      312.731         1205
  317      313.196         1293
  318       313.66         1267
  319      314.125         1180
  320       314.59         1086
  321      315.055         1017
  322      315.519          977
  323      315.984          955
  324      316.448          940
  325      316.913          928
  326      317.377          920
  327      317.841          917
  328      318.305          923
  329      318.769          925
  330      319.233          923
  331      319.697          916
  332      320.161          915
  333      320.625          918
  334      321.089          922
  335      321.552          922
  336      322.016          914
  337      322.479          926
  338      322.943          933
  339      323.406          912
  340      323.869          906
  341      324.333          914
  342      324.796          918
  343      325.259          908
  344      325.722          905
  345      326.185          908
  346      326.647          910
  347       327.11          919
  348      327.573          923
  349      328.035          920
  350      328.498          916
  351       328.96          909
  352      329.423          911
  353      329.885          912
  354      330.347          904
  355       330.81          902
  356      331.272          905
  357      331.734          900
  358      332.196          893
  359      332.657          899
  360      333.119          911
  361      333.581          932
  362      334.043          962
  363      334.504          967
  364      334.966          960
  365      335.427          946
  366      335.888          928
  367       336.35          913
  368      336.811          917
  369      337.272          926
  370      337.733          925
  371      338.194          921
  372      338.655          919
  373      339.115          912
  374      339.576          916
  375      340.037          920
  376      340.497          916
  377      340.958          913
  378      341.418          914
  379      341.879          909
  380      342.339          905
  381      342.799          898
  382      343.259          914
  383      343.719          928
  384      344.179          917
  385      344.639          915
  386      345.099          910
  387      345.559          901
  388      346.018          905
  389      346.478          917
  390      346.937          910
  391      347.397          904
  392      347.856          911
  393      348.315          914
  394      348.774          921
  395      349.234          919
  396      349.693          916
  397      350.152          909
  398       350.61          901
  399      351.069          907
  400      351.528          921
  401      351.987          922
  402      352.445          925
  403      352.904          923
  404      353.362          917
  405       353.82          912
  406      354.279          905
  407      354.737          917
  408      355.195          936
  409      355.653          929
  410      356.111          919
  411      356.569          913
  412      357.027          915
  413      357.484          917
  414      357.942          909
  415      358.399          903
  416      358.857          909
  417      359.314          913
  418      359.772          919
  419      360.229          925
  420      360.686          930
  421      361.143          928
  422        361.6          925
  423      362.057          930
  424      362.514          935
  425      362.971          940
  426      363.427          963
  427      363.884         1016
  428       364.34         1241
  429      364.797         1904
  430      365.253         2677
  431      365.709         2817
  432      366.166         2388
  433      366.622         1919
  434      367.078         1574
  435      367.534         1329
  436       367.99         1176
  437      368.445         1078
  438      368.901         1016
  439      369.357          990
  440      369.812          972
  441      370.268          953
  442      370.723          942
  443      371.179          927
  444      371.634          915
  445      372.089          910
  446      372.544          915
  447      372.999          928
  448      373.454          929
  449      373.909          918
  450      374.364          912
  451      374.818          908
  452      375.273          909
  453      375.727          910
  454      376.182          904
  455      376.636          900
  456       377.09          902
  457      377.545          902
  458      377.999          903
  459      378.453          911
  460      378.907          916
  461      379.361          915
  462      379.814          909
  463      380.268          919
  464      380.722          925
  465      381.175          921
  466      381.629          913
  467      382.082          911
  468      382.535          913
  469      382.989          911
  470      383.442          910
  471      383.895          916
  472      384.348          922
  473      384.801          920
  474      385.253          921
  475      385.706          914
  476      386.159          907
  477      386.611          906
  478      387.064          905
  479      387.516          903
  480      387.968          905
  481      388.421          905
  482      388.873          904
  483      389.325          902
  484      389.777          897
  485      390.229          899
  486      390.681          901
  487      391.132          903
  488      391.584          914
  489      392.035          919
  490      392.487          911
  491      392.938          913
  492       393.39          918
  493      393.841          918
  494      394.292          914
  495      394.743          908
  496      395.194          909
  497      395.645          903
  498      396.096          903
  499      396.546          907
  500      396.997          913
  501      397.448          911
  502      397.898          913
  503      398.349          920
  504      398.799          909
  505      399.249          912
  506      399.699          920
  507      400.149          919
  508      400.599          916
  509      401.049          916
  510      401.499          921
  511      401.949          926
  512      402.398          925
  513      402.848          928
  514      403.297          949
  515      403.747         1030
  516      404.196         1313
  517      404.645         1878
  518      405.094         2295
  519      405.543         2149
  520      405.992         1736
  521      406.441         1416
  522       406.89         1229
  523      407.339         1122
  524      407.787         1080
  525      408.236         1063
  526      408.684         1034
  527      409.132          997
  528      409.581          971
  529      410.029          956
  530      410.477          943
  531      410.925          931
  532      411.373          925
  533      411.821          929
  534      412.269          932
  535      412.716          941
  536      413.164          961
  537      413.611          971
  538      414.059          953
  539      414.506          944
  540      414.953          940
  541        415.4          944
  542      415.847          944
  543      416.294          938
  544      416.741          940
  545      417.188          946
  546      417.635          936
  547      418.081          924
  548      418.528          921
  549      418.974          925
  550      419.421          932
  551      419.867          939
  552      420.313          947
  553      420.759          946
  554      421.205          935
  555      421.651          930
  556      422.097          926
  557      422.543          917
  558      422.989          920
  559      423.434          914
  560       423.88          905
  561      424.325          908
  562       424.77          905
  563      425.216          900
  564      425.661          905
  565      426.106          918
  566      426.551          929
  567      426.996          940
  568       427.44          945
  569      427.885          937
  570       428.33          932
  571      428.774          934
  572      429.219          927
  573      429.663          936
  574      430.107          948
  575      430.551          947
  576      430.996          949
  577       431.44          955
  578      431.883          952
  579      432.327          948
  580      432.771          950
  581      433.215          958
  582      433.658          970
  583      434.102         1014
  584      434.545         1133
  585      434.988         1449
  586      435.431         2583
  587      435.875         4939
  588      436.318         6690
  589      436.761         6071
  590      437.203         4300
  591      437.646         2968
  592      438.089         2153
  593      438.531         1666
  594      438.974         1384
  595      439.416         1213
  596      439.859         1104
  597      440.301         1042
  598      440.743         1005
  599      441.185          984
  600      441.627          969
  601      442.069          953
  602       442.51          943
  603      442.952          940
  604      443.394          940
  605      443.835          934
  606      444.277          924
  607      444.718          924
  608      445.159          917
  609        445.6          908
  610      446.041          916
  611      446.482          921
  612      446.923          914
  613      447.364          912
  614      447.804          919
  615      448.245          920
  616      448.685          918
  617      449.126          919
  618      449.566          926
  619      450.006          924
  620      450.447          922
  621      450.887          918
  622      451.326          923
  623      451.766          926
  624      452.206          920
  625      452.646          917
  626      453.085          913
  627      453.525          911
  628      453.964          911
  629      454.403          921
  630      454.843          926
  631      455.282          922
  632      455.721          912
  633       456.16          905
  634      456.599          902
  635      457.037          913
  636      457.476          914
  637      457.915          902
  638      458.353          897
  639      458.791          894
  640       459.23          888
  641      459.668          886
  642      460.106          891
  643      460.544          893
  644      460.982          896
  645       461.42          908
  646      461.857          921
  647      462.295          913
  648      462.733          897
  649       463.17          890
  650      463.607          892
  651      464.045          895
  652      464.482          896
  653      464.919          896
  654      465.356          896
  655      465.793          900
  656       466.23          912
  657      466.666          913
  658      467.103          905
  659      467.539          912
  660      467.976          918
  661      468.412          915
  662      468.848          912
  663      469.284          903
  664       469.72          900
  665      470.156          909
  666      470.592          909
  667      471.028          913
  668      471.464          915
  669      471.899          910
  670      472.335          909
  671       472.77          905
  672      473.205          904
  673      473.641          908
  674      474.076          909
  675      474.511          913
  676      474.946          914
  677       475.38          907
  678      475.815          900
  679       476.25          905
  680      476.684          912
  681      477.119          911
  682      477.553          910
  683      477.987          913
  684      478.421          919
  685      478.856          925
  686      479.289          930
  687      479.723          931
  688      480.157          926
  689      480.591          924
  690      481.024          917
  691      481.458          909
  692      481.891          901
  693      482.324          895
  694      482.758          893
  695      483.191          895
  696      483.624          896
  697      484.057          904
  698      484.489          904
  699      484.922          902
  700      485.355          911
  701      485.787          909
  702       486.22          903
  703      486.652          907
  704      487.084          921
  705      487.516          932
  706      487.948          929
  707       488.38          925
  708      488.812          923
  709      489.244          920
  710      489.676          913
  711      490.107          912
  712      490.539          910
  713       490.97          909
  714      491.401          910
  715      491.832          912
  716      492.263          919
  717      492.694          918
  718      493.125          915
  719      493.556          902
  720      493.987          906
  721      494.417          914
  722      494.848          908
  723      495.278          914
  724      495.708          919
  725      496.139          914
  726      496.569          906
  727      496.999          903
  728      497.429          913
  729      497.858          919
  730      498.288          912
  731      498.718          912
  732      499.147          914
  733      499.577          908
  734      500.006          902
  735      500.435          896
  736      500.864          900
  737      501.293          906
  738      501.722          914
  739      502.151          919
  740       502.58          909
  741      503.008          909
  742      503.437          914
  743      503.865          913
  744      504.293          914
  745      504.722          909
  746       505.15          907
  747      505.578          907
  748      506.006          906
  749      506.434          903
  750      506.861          901
  751      507.289          904
  752      507.716          909
  753      508.144          906
  754      508.571          904
  755      508.998          911
  756      509.425          921
  757      509.852          930
  758      510.279          939
  759      510.706          919
  760      511.133          909
  761       511.56          905
  762      511.986          900
  763      512.412          904
  764      512.839          909
  765      513.265          905
  766      513.691          903
  767      514.117          907
  768      514.543          905
  769      514.969          895
  770      515.395          905
  771       515.82          914
  772      516.246          915
  773      516.671          921
  774      517.096          920
  775      517.522          915
  776      517.947          916
  777      518.372          914
  778      518.797          908
  779      519.222          900
  780      519.646          902
  781      520.071          913
  782      520.495          912
  783       520.92          903
  784      521.344          905
  785      521.768          910
  786      522.192          916
  787      522.616          919
  788       523.04          919
  789      523.464          922
  790      523.888          922
  791      524.311          917
  792      524.735          908
  793      525.158          909
  794      525.581          916
  795      526.005          916
  796      526.428          917
  797      526.851          916
  798      527.274          925
  799      527.696          929
  800      528.119          924
  801      528.542          919
  802      528.964          914
  803      529.386          912
  804      529.809          904
  805      530.231          897
  806      530.653          900
  807      531.075          900
  808      531.497          909
  809      531.918          911
  810       532.34          913
  811      532.761          914
  812      533.183          903
  813      533.604          892
  814      534.025          890
  815      534.447          905
  816      534.868          915
  817      535.289          910
  818      535.709          911
  819       536.13          919
  820      536.551          917
  821      536.971          911
  822      537.392          914
  823      537.812          919
  824      538.232          913
  825      538.652          898
  826      539.072          897
  827      539.492          903
  828      539.912          908
  829      540.331          911
  830      540.751          912
  831       541.17          911
  832       541.59          902
  833      542.009          909
  834      542.428          916
  835      542.847          920
  836      543.266          920
  837      543.685          925
  838      544.104          937
  839      544.522          964
  840      544.941         1041
  841      545.359         1217
  842      545.778         1851
  843      546.196         3221
  844      546.614         4572
  845      547.032         4544
  846       547.45         3409
  847      547.867         2427
  848      548.285         1825
  849      548.703         1471
  850       549.12         1261
  851      549.538         1132
  852      549.955         1054
  853      550.372         1004
  854      550.789          973
  855      551.206          948
  856      551.623          931
  857      552.039          928
  858      552.456          927
  859      552.873          930
  860      553.289          929
  861      553.705          925
  862      554.121          929
  863      554.537          923
  864      554.953          920
  865      555.369          923
  866      555.785          923
  867      556.201          914
  868      556.616          905
  869      557.032          905
  870      557.447          903
  871      557.862          899
  872      558.277          900
  873      558.692          896
  874      559.107          894
  875      559.522          895
  876      559.937          894
  877      560.351          898
  878      560.766          908
  879       561.18          910
  880      561.595          905
  881      562.009          909
  882      562.423          907
  883      562.837          898
  884       563.25          899
  885      563.664          908
  886      564.078          923
  887      564.491          928
  888      564.905          930
  889      565.318          919
  890      565.731          915
  891      566.144          911
  892      566.557          907
  893       566.97          912
  894      567.383          920
  895      567.795          921
  896      568.208          923
  897       568.62          911
  898      569.033          911
  899      569.445          920
  900      569.857          911
  901      570.269          898
  902      570.681          895
  903      571.093          895
  904      571.504          892
  905      571.916          892
  906      572.327          895
  907      572.739          899
  908       573.15          918
  909      573.561          933
  910      573.972          930
  911      574.383          920
  912      574.794          911
  913      575.204          910
  914      575.615          913
  915      576.025          925
  916      576.436          961
  917      576.846         1059
  918      577.256         1220
  919      577.666         1313
  920      578.076         1257
  921      578.486         1161
  922      578.896         1157
  923      579.305         1258
  924      579.715         1340
  925      580.124         1282
  926      580.533         1161
  927      580.942         1067
  928      581.351         1002
  929       581.76          964
  930      582.169          963
  931      582.578          959
  932      582.986          939
  933      583.395          931
  934      583.803          919
  935      584.212          908
  936       584.62          905
  937      585.028          908
  938      585.436          909
  939      585.843          903
  940      586.251          907
  941      586.659          912
  942      587.066          901
  943      587.474          901
  944      587.881          917
  945      588.288          915
  946      588.695          905
  947      589.102          905
  948      589.509          901
  949      589.915          891
  950      590.322          892
  951      590.728          889
  952      591.135          893
  953      591.541          904
  954      591.947          933
  955      592.353          948
  956      592.759          926
  957      593.165          922
  958      593.571          920
  959      593.976          920
  960      594.382          923
  961      594.787          916
  962      595.192          911
  963      595.597          903
  964      596.002          906
  965      596.407          910
  966      596.812          908
  967      597.217          903
  968      597.621          908
  969      598.026          927
  970       598.43          933
  971      598.834          920
  972      599.238          913
  973      599.642          909
  974      600.046          913
  975       600.45          916
  976      600.854          907
  977      601.257          905
  978      601.661          909
  979      602.064          911
  980      602.467          912
  981       602.87          907
  982      603.273          903
  983      603.676          898
  984      604.079          900
  985      604.481          904
  986      604.884          903
  987      605.286          897
  988      605.689          898
  989      606.091          913
  990      606.493          923
  991      606.895          913
  992      607.297          907
  993      607.698          907
  994        608.1          905
  995      608.501          899
  996      608.903          892
  997      609.304          900
  998      609.705          905
  999      610.106          902
 1000      610.507          916
 1001      610.908          925
 1002      611.308          917
 1003      611.709          911
 1004      612.109          912
 1005       612.51          905
 1006       612.91          905
 1007       613.31          914
 1008       613.71          921
 1009       614.11          923
 1010       614.51          915
 1011      614.909          907
 1012      615.309          929
 1013      615.708          945
 1014      616.108          928
 1015      616.507          919
 1016      616.906          918
 1017      617.305          917
 1018      617.704          923
 1019      618.102          919
 1020      618.501          917
 1021      618.899          917
 1022      619.298          910
 1023      619.696          906
 1024      620.094          914
 1025      620.492          913
 1026       620.89          906
 1027      621.288          904
 1028      621.686          902
 1029      622.083          902
 1030       622.48          897
 1031      622.878          900
 1032      623.275          910
 1033      623.672          916
 1034      624.069          916
 1035      624.466          904
 1036      624.863          903
 1037      625.259          914
 1038      625.656          920
 1039      626.052          918
 1040      626.448          946
 1041      626.844          956
 1042      627.241          934
 1043      627.636          930
 1044      628.032          921
 1045      628.428          917
 1046      628.823          929
 1047      629.219          932
 1048      629.614          925
 1049      630.009          916
 1050      630.404          908
 1051      630.799          913
 1052      631.194          919
 1053      631.589          920
 1054      631.984          915
 1055      632.378          909
 1056      632.772          901
 1057      633.167          893
 1058      633.561          892
 1059      633.955          897
 1060      634.349          903
 1061      634.743          893
 1062      635.136          893
 1063       635.53          906
 1064      635.923          920
 1065      636.316          914
 1066       636.71          913
 1067      637.103          917
 1068      637.496          905
 1069      637.888          904
 1070      638.281          904
 1071      638.674          904
 1072      639.066          913
 1073      639.459          907
 1074      639.851          904
 1075      640.243          904
 1076      640.635          898
 1077      641.027          893
 1078      641.419          895
 1079       641.81          890
 1080      642.202          895
 1081      642.593          899
 1082      642.984          897
 1083      643.375          904
 1084      643.766          904
 1085      644.157          903
 1086      644.548          904
 1087      644.939          906
 1088      645.329          910
 1089       645.72          916
 1090       646.11          911
 1091        646.5          910
 1092       646.89          911
 1093       647.28          906
 1094       647.67          903
 1095       648.06          901
 1096      648.449          906
 1097      648.839          903
 1098      649.228          896
 1099      649.617          903
 1100      650.007          913
 1101      650.396          916
 1102      650.784          930
 1103      651.173          939
 1104      651.562          928
 1105       651.95          916
 1106      652.339          916
 1107      652.727          916
 1108      653.115          906
 1109      653.503          907
 1110      653.891          908
 1111      654.279          909
 1112      654.666          911
 1113      655.054          908
 1114      655.441          906
 1115      655.828          903
 1116      656.216          898
 1117      656.603          897
 1118      656.989          901
 1119      657.376          906
 1120      657.763          910
 1121      658.149          912
 1122      658.536          910
 1123      658.922          914
 1124      659.308          918
 1125      659.694          913
 1126       660.08          913
 1127      660.466          905
 1128      660.852          900
 1129      661.237          897
 1130      661.623          886
 1131      662.008          881
 1132      662.393          899
 1133      662.778          912
 1134      663.163          912
 1135      663.548          910
 1136      663.933          906
 1137      664.317          901
 1138      664.702          901
 1139      665.086          899
 1140       665.47          897
 1141      665.854          896
 1142      666.238          901
 1143      666.622          908
 1144      667.006          912
 1145      667.389          908
 1146      667.773          899
 1147      668.156          896
 1148      668.539          892
 1149      668.923          895
 1150      669.305          896
 1151      669.688          895
 1152      670.071          900
 1153      670.454          903
 1154      670.836          909
 1155      671.218          918
 1156      671.601          919
 1157      671.983          911
 1158      672.365          898
 1159      672.747          892
 1160      673.128          893
 1161       673.51          889
 1162      673.891          893
 1163      674.273          912
 1164      674.654          924
 1165      675.035          912
 1166      675.416          908
 1167      675.797          907
 1168      676.177          900
 1169      676.558          894
 1170      676.938          899
 1171      677.319          905
 1172      677.699          905
 1173      678.079          905
 1174      678.459          908
 1175      678.839          914
 1176      679.219          913
 1177      679.598          911
 1178      679.978          908
 1179      680.357          906
 1180      680.736          916
 1181      681.115          909
 1182      681.494          901
 1183      681.873          902
 1184      682.252          904
 1185       682.63          900
 1186      683.009          894
 1187      683.387          908
 1188      683.765          931
 1189      684.143          929
 1190      684.521          929
 1191      684.899          930
 1192      685.277          914
 1193      685.654          900
 1194      686.032          896
 1195      686.409          896
 1196      686.786          901
 1197      687.163          904
 1198       687.54          901
 1199      687.917          902
 1200      688.294          909
 1201       688.67          918
 1202      689.046          914
 1203      689.423          911
 1204      689.799          908
 1205      690.175          907
 1206      690.551          911
 1207      690.927          914
 1208      691.302          944
 1209      691.678          964
 1210      692.053          944
 1211      692.428          932
 1212      692.804          910
 1213      693.179          904
 1214      693.553          908
 1215      693.928          912
 1216      694.303          919
 1217      694.677          917
 1218      695.052          924
 1219      695.426          939
 1220        695.8          959
 1221      696.174         1011
 1222      696.548         1125
 1223      696.921         1256
 1224      697.295         1298
 1225      697.669         1213
 1226      698.042         1096
 1227      698.415         1004
 1228      698.788          952
 1229      699.161          920
 1230      699.534          911
 1231      699.907          925
 1232      700.279          919
 1233      700.652          903
 1234      701.024          906
 1235      701.396          904
 1236      701.768          897
 1237       702.14          896
 1238      702.512          897
 1239      702.883          895
 1240      703.255          902
 1241      703.626          904
 1242      703.998          901
 1243      704.369          905
 1244       704.74          898
 1245      705.111          899
 1246      705.481          914
 1247      705.852          923
 1248      706.222          941
 1249      706.593          992
 1250      706.963         1060
 1251      707.333         1099
 1252      707.703         1069
 1253      708.073         1012
 1254      708.442          972
 1255      708.812          945
 1256      709.181          934
 1257      709.551          923
 1258       709.92          913
 1259      710.289          906
 1260      710.658          897
 1261      711.027          896
 1262      711.395          901
 1263      711.764          900
 1264      712.132          893
 1265        712.5          892
 1266      712.869          900
 1267      713.236          898
 1268      713.604          902
 1269      713.972          911
 1270       714.34          913
 1271      714.707          917
 1272      715.074          929
 1273      715.442          929
 1274      715.809          918
 1275      716.176          910
 1276      716.542          909
 1277      716.909          916
 1278      717.276          919
 1279      717.642          917
 1280      718.008          905
 1281      718.374          900
 1282       718.74          903
 1283      719.106          902
 1284      719.472          899
 1285      719.838          900
 1286      720.203          905
 1287      720.568          905
 1288      720.934          905
 1289      721.299          901
 1290      721.664          900
 1291      722.029          896
 1292      722.393          893
 1293      722.758          899
 1294      723.122          898
 1295      723.486          903
 1296      723.851          905
 1297      724.215          903
 1298      724.578          906
 1299      724.942          909
 1300      725.306          907
 1301      725.669          904
 1302      726.033          909
 1303      726.396          917
 1304      726.759          973
 1305      727.122         1024
 1306      727.485         1021
 1307      727.847         1028
 1308       728.21         1009
 1309      728.572          972
 1310      728.935          942
 1311      729.297          920
 1312      729.659          917
 1313      730.021          923
 1314      730.382          917
 1315      730.744          908
 1316      731.105          904
 1317      731.467          900
 1318      731.828          898
 1319      732.189          907
 1320       732.55          911
 1321      732.911          901
 1322      733.271          901
 1323      733.632          901
 1324      733.992          904
 1325      734.352          911
 1326      734.713          905
 1327      735.072          897
 1328      735.432          896
 1329      735.792          903
 1330      736.152          907
 1331      736.511          909
 1332       736.87          914
 1333      737.229          923
 1334      737.589          937
 1335      737.947          960
 1336      738.306         1028
 1337      738.665         1118
 1338      739.023         1172
 1339      739.382         1149
 1340       739.74         1078
 1341      740.098         1012
 1342      740.456          965
 1343      740.814          940
 1344      741.171          925
 1345      741.529          915
 1346      741.886          909
 1347      742.244          907
 1348      742.601          909
 1349      742.958          911
 1350      743.314          909
 1351      743.671          911
 1352      744.028          919
 1353      744.384          915
 1354       744.74          905
 1355      745.097          905
 1356      745.453          899
 1357      745.809          887
 1358      746.164          884
 1359       746.52          883
 1360      746.875          882
 1361      747.231          883
 1362      747.586          893
 1363      747.941          901
 1364      748.296          904
 1365      748.651          903
 1366      749.005          906
 1367       749.36          909
 1368      749.714          935
 1369      750.069          993
 1370      750.423         1072
 1371      750.777         1157
 1372       751.13         1216
 1373      751.484         1253
 1374      751.838         1266
 1375      752.191         1246
 1376      752.544         1177
 1377      752.897         1080
 1378       753.25         1003
 1379      753.603          959
 1380      753.956          941
 1381      754.309          929
 1382      754.661          922
 1383      755.013          917
 1384      755.365          911
 1385      755.717          906
 1386      756.069          903
 1387      756.421          905
 1388      756.773          907
 1389      757.124          904
 1390      757.476          908
 1391      757.827          912
 1392      758.178          913
 1393      758.529          909
 1394      758.879          902
 1395       759.23          897
 1396      759.581          903
 1397      759.931          915
 1398      760.281          921
 1399      760.631          925
 1400      760.981          921
 1401      761.331          911
 1402      761.681          914
 1403       762.03          919
 1404      762.379          922
 1405      762.729          934
 1406      763.078          993
 1407      763.427         1204
 1408      763.776         1519
 1409      764.124         1714
 1410      764.473         1653
 1411      764.821         1421
 1412      765.169         1220
 1413      765.517         1088
 1414      765.865         1010
 1415      766.213          970
 1416      766.561          945
 1417      766.909          927
 1418      767.256          916
 1419      767.603          908
 1420       767.95          902
 1421      768.297          896
 1422      768.644          893
 1423      768.991          889
 1424      769.337          894
 1425      769.684          898
 1426       770.03          897
 1427      770.376          898
 1428      770.722          900
 1429      771.068          903
 1430      771.414          909
 1431      771.759          912
 1432      772.105          929
 1433       772.45          986
 1434      772.795         1051
 1435       773.14         1074
 1436      773.485         1046
 1437       773.83         1005
 1438      774.174          973
 1439      774.519          950
 1440      774.863          932
 1441      775.207          919
 1442      775.551          915
 1443      775.895          914
 1444      776.239          913
 1445      776.582          911
 1446      776.926          913
 1447      777.269          914
 1448      777.612          917
 1449      777.955          923
 1450      778.298          936
 1451      778.641          928
 1452      778.983          908
 1453      779.326          904
 1454      779.668          906
 1455       780.01          908
 1456      780.352          908
 1457      780.694          909
 1458      781.036          913
 1459      781.377          912
 1460      781.719          914
 1461       782.06          915
 1462      782.401          907
 1463      782.742          901
 1464      783.083          897
 1465      783.424          902
 1466      783.764          907
 1467      784.105          901
 1468      784.445          899
 1469      784.785          900
 1470      785.125          896
 1471      785.465          896
 1472      785.805          903
 1473      786.144          903
 1474      786.484          908
 1475      786.823          908
 1476      787.162          909
 1477      787.501          911
 1478       787.84          904
 1479      788.178          904
 1480      788.517          908
 1481      788.855          904
 1482      789.194          896
 1483      789.532          901
 1484       789.87          906
 1485      790.208          901
 1486      790.545          907
 1487      790.883          911
 1488       791.22          900
 1489      791.557          903
 1490      791.894          911
 1491      792.231          912
 1492      792.568          916
 1493      792.905          919
 1494      793.241          917
 1495      793.578          908
 1496      793.914          908
 1497       794.25          912
 1498      794.586          919
 1499      794.922          932
 1500      795.257          934
 1501      795.593          934
 1502      795.928          930
 1503      796.263          919
 1504      796.598          917
 1505      796.933          909
 1506      797.268          902
 1507      797.603          907
 1508      797.937          899
 1509      798.271          888
 1510      798.606          890
 1511       798.94          900
 1512      799.274          909
 1513      799.607          908
 1514      799.941          909
 1515      800.274          912
 1516      800.608          916
 1517      800.941          922
 1518      801.274          925
 1519      801.607          931
 1520      801.939          931
 1521      802.272          919
 1522      802.604          912
 1523      802.936          907
 1524      803.269          905
 1525      803.601          909
 1526      803.932          903
 1527      804.264          896
 1528      804.596          897
 1529      804.927          900
 1530      805.258          911
 1531      805.589          923
 1532       805.92          919
 1533      806.251          917
 1534      806.582          908
 1535      806.912          907
 1536      807.242          906
 1537      807.573          895
 1538      807.903          893
 1539      808.232          901
 1540      808.562          908
 1541      808.892          909
 1542      809.221          911
 1543      809.551          928
 1544       809.88          927
 1545      810.209          913
 1546      810.538          904
 1547      810.866          905
 1548      811.195          916
 1549      811.523          926
 1550      811.851          927
 1551       812.18          918
 1552      812.507          913
 1553      812.835          914
 1554      813.163          918
 1555       813.49          916
 1556      813.818          912
 1557      814.145          907
 1558      814.472          897
 1559      814.799          898
 1560      815.126          919
 1561      815.452          925
 1562      815.779          918
 1563      816.105          919
 1564      816.431          920
 1565      816.757          906
 1566      817.083          897
 1567      817.409          899
 1568      817.734          897
 1569       818.06          893
 1570      818.385          896
 1571       818.71          895
 1572      819.035          893
 1573       819.36          891
 1574      819.685          890
 1575      820.009          897
 1576      820.333          906
 1577      820.658          905
 1578      820.982          904
 1579      821.305          903
 1580      821.629          900
 1581      821.953          904
 1582      822.276          908
 1583        822.6          901
 1584      822.923          903
 1585      823.246          909
 1586      823.569          911
 1587      823.891          919
 1588      824.214          923
 1589      824.536          903
 1590      824.858          896
 1591       825.18          892
 1592      825.502          896
 1593      825.824          898
 1594      826.146          901
 1595      826.467          902
 1596      826.789          903
 1597       827.11          903
 1598      827.431          906
 1599      827.752          902
 1600      828.072          906
 1601      828.393          920
 1602      828.713          921
 1603      829.034          914
 1604      829.354          908
 1605      829.674          905
 1606      829.993          905
 1607      830.313          907
 1608      830.633          901
 1609      830.952          904
 1610      831.271          907
 1611       831.59          896
 1612      831.909          892
 1613      832.228          891
 1614      832.546          888
 1615      832.865          887
 1616      833.183          905
 1617      833.501          922
 1618      833.819          915
 1619      834.137          912
 1620      834.455          913
 1621      834.772          912
 1622      835.089          910
 1623      835.407          904
 1624      835.724          896
 1625       836.04          898
 1626      836.357          903
 1627      836.674          902
 1628       836.99          894
 1629      837.306         1000
 1630      837.623         1069
 1631      837.939          992
 1632      838.254          951
 1633       838.57          930
 1634      838.886          923
 1635      839.201          916
 1636      839.516          916
 1637      839.831          911
 1638      840.146          900
 1639      840.461          899
 1640      840.775          902
 1641       841.09          911
 1642      841.404          918
 1643      841.718          921
 1644      842.032          914
 1645      842.346          910
 1646      842.659          901
 1647      842.973          898
 1648      843.286          900
 1649      843.599          916
 1650      843.912          925
 1651      844.225          912
 1652      844.538          906
 1653      844.851          904
 1654      845.163          905
 1655      845.475          910
 1656      845.787          903
 1657      846.099          901
 1658      846.411          907
 1659      846.723          900
 1660      847.034          903
 1661      847.345          899
 1662      847.657          902
 1663      847.968          905
 1664      848.278          895
 1665      848.589          895
 1666        848.9          895
 1667       849.21          887
 1668       849.52          884
 1669       849.83          890
 1670       850.14          889
 1671       850.45          882
 1672      850.759          890
 1673      851.069          889
 1674      851.378          879
 1675      851.687          882
 1676      851.996          894
 1677      852.305          903
 1678      852.614          904
 1679      852.922          906
 1680       853.23          899
 1681      853.539          896
 1682      853.847          901
 1683      854.154          899
 1684      854.462          898
 1685       854.77          893
 1686      855.077          886
 1687      855.384          886
 1688      855.691          884
 1689      855.998          882
 1690      856.305          885
 1691      856.612          891
 1692      856.918          898
 1693      857.224          907
 1694       857.53          904
 1695      857.836          905
 1696      858.142          913
 1697      858.448          916
 1698      858.753          916
 1699      859.059          911
 1700      859.364          913
 1701      859.669          909
 1702      859.974          905
 1703      860.278          908
 1704      860.583          911
 1705      860.887          908
 1706      861.192          917
 1707      861.496          919
 1708        861.8          903
 1709      862.103          897
 1710      862.407          896
 1711       862.71          900
 1712      863.014          906
 1713      863.317          899
 1714       863.62          902
 1715      863.922          906
 1716      864.225          905
 1717      864.527          900
 1718       864.83          899
 1719      865.132          897
 1720      865.434          911
 1721      865.736          914
 1722      866.037          894
 1723      866.339          895
 1724       866.64          901
 1725      866.941          908
 1726      867.242          915
 1727      867.543          910
 1728      867.844          903
 1729      868.145          893
 1730      868.445          885
 1731      868.745          888
 1732      869.045          888
 1733      869.345          880
 1734      869.645          877
 1735      869.944          882
 1736      870.244          886
 1737      870.543          890
 1738      870.842          894
 1739      871.141          892
 1740       871.44          893
 1741      871.739          899
 1742      872.037          907
 1743      872.335          905
 1744      872.634          902
 1745      872.931          900
 1746      873.229          897
 1747      873.527          893
 1748      873.824          897
 1749      874.122          901
 1750      874.419          895
 1751      874.716          893
 1752      875.013          895
 1753      875.309          892
 1754      875.606          886
 1755      875.902          892
 1756      876.199          898
 1757      876.495          898
 1758       876.79          899
 1759      877.086          897
 1760      877.382          891
 1761      877.677          885
 1762      877.972          888
 1763      878.267          899
 1764      878.562          906
 1765      878.857          909
 1766      879.152          907
 1767      879.446          897
 1768       879.74          891
 1769      880.034          889
 1770      880.328          893
 1771      880.622          895
 1772      880.916          890
 1773      881.209          891
 1774      881.502          893
 1775      881.795          894
 1776      882.088          901
 1777      882.381          905
 1778      882.674          908
 1779      882.966          902
 1780      883.258          907
 1781      883.551          919
 1782      883.843          920
 1783      884.134          925
 1784      884.426          918
 1785      884.717          901
 1786      885.009          897
 1787        885.3          895
 1788      885.591          901
 1789      885.882          907
 1790      886.172          906
 1791      886.463          905
 1792      886.753          900
 1793      887.043          896
 1794      887.333          907
 1795      887.623          909
 1796      887.913          897
 1797      888.202          891
 1798      888.492          902
 1799      888.781          911
 1800       889.07          907
 1801      889.359          917
 1802      889.647          919
 1803      889.936          907
 1804      890.224          910
 1805      890.512          926
 1806        890.8          923
 1807      891.088          913
 1808      891.376          916
 1809      891.663          911
 1810      891.951          901
 1811      892.238          892
 1812      892.525          893
 1813      892.812          886
 1814      893.099          889
 1815      893.385          894
 1816      893.671          899
 1817      893.958          906
 1818      894.244          906
 1819       894.53          905
 1820      894.815          898
 1821      895.101          890
 1822      895.386          889
 1823      895.671          891
 1824      895.956          897
 1825      896.241          901
 1826      896.526          896
 1827       896.81          890
 1828      897.095          888
 1829      897.379          899
 1830      897.663          906
 1831      897.947          906
 1832      898.231          910
 1833      898.514          905
 1834      898.798          897
 1835      899.081          888
 1836      899.364          880
 1837      899.647          885
 1838      899.929          886
 1839      900.212          885
 1840      900.494          896
 1841      900.776          895
 1842      901.058          896
 1843       901.34          905
 1844      901.622          908
 1845      901.904          905
 1846      902.185          904
 1847      902.466          909
 1848      902.747          925
 1849      903.028          925
 1850      903.309          917
 1851      903.589          900
 1852       903.87          893
 1853       904.15          899
 1854       904.43          903
 1855       904.71          907
 1856      904.989          904
 1857      905.269          896
 1858      905.548          897
 1859      905.827          905
 1860      906.106          904
 1861      906.385          901
 1862      906.664          912
 1863      906.942          922
 1864      907.221          907
 1865      907.499          896
 1866      907.777          891
 1867      908.055          896
 1868      908.332          900
 1869       908.61          913
 1870      908.887          917
 1871      909.164          903
 1872      909.441          898
 1873      909.718          898
 1874      909.995          895
 1875      910.271          893
 1876      910.548          897
 1877      910.824          900
 1878        911.1          901
 1879      911.375          899
 1880      911.651          903
 1881      911.927          905
 1882      912.202          899
 1883      912.477          895
 1884      912.752          895
 1885      913.027          893
 1886      913.301          897
 1887      913.576          898
 1888       913.85          898
 1889      914.124          894
 1890      914.398          890
 1891      914.672          896
 1892      914.945          895
 1893      915.219          896
 1894      915.492          896
 1895      915.765          909
 1896      916.038          913
 1897      916.311          900
 1898      916.583          897
 1899      916.856          891
 1900      917.128          893
 1901        917.4          904
 1902      917.672          907
 1903      917.944          904
 1904      918.215          896
 1905      918.486          891
 1906      918.758          893
 1907      919.029          899
 1908      919.299          904
 1909       919.57          905
 1910      919.841          903
 1911      920.111          901
 1912      920.381          902
 1913      920.651          899
 1914      920.921          899
 1915      921.191          903
 1916       921.46          902
 1917      921.729          891
 1918      921.999          886
 1919      922.268          894
 1920      922.536          892
 1921      922.805          881
 1922      923.073          881
 1923      923.342          884
 1924       923.61          882
 1925      923.878          881
 1926      924.145          883
 1927      924.413          883
 1928       924.68          883
 1929      924.948          889
 1930      925.215          898
 1931      925.482          900
 1932      925.748          900
 1933      926.015          902
 1934      926.281          901
 1935      926.547          900
 1936      926.813          907
 1937      927.079          908
 1938      927.345          902
 1939       927.61          900
 1940      927.876          901
 1941      928.141          901
 1942      928.406          899
 1943      928.671          896
 1944      928.935          901
 1945        929.2          911
 1946      929.464          917
 1947      929.728          917
 1948      929.992          911
 1949      930.256          908
 1950       930.52          905
 1951      930.783          899
 1952      931.046          893
 1953      931.309          892
 1954      931.572          903
 1955      931.835          915
 1956      932.097          909
 1957       932.36          901
 1958      932.622          899
 1959      932.884          897
 1960      933.146          898
 1961      933.408          909
 1962      933.669          903
 1963       933.93          888
 1964      934.192          894
 1965      934.453          894
 1966      934.713          890
 1967      934.974          889
 1968      935.234          892
 1969      935.495          900
 1970      935.755          904
 1971      936.015          894
 1972      936.274          890
 1973      936.534          900
 1974      936.793          902
 1975      937.053          898
 1976      937.312          891
 1977      937.571          889
 1978      937.829          898
 1979      938.088          899
 1980      938.346          898
 1981      938.604          900
 1982      938.862          902
 1983       939.12          903
 1984      939.378          906
 1985      939.635          905
 1986      939.893          901
 1987       940.15          909
 1988      940.407          917
 1989      940.663          916
 1990       940.92          912
 1991      941.176          906
 1992      941.433          901
 1993      941.689          901
 1994      941.944          906
 1995        942.2          920
 1996      942.456          916
 1997      942.711          904
 1998      942.966          893
 1999      943.221          889
 2000      943.476          896
 2001      943.731          901
 2002      943.985          902
 2003      944.239          901
 2004      944.493          906
 2005      944.747          907
 2006      945.001          901
 2007      945.255          891
 2008      945.508          885
 2009      945.761          890
 2010      946.014          904
 2011      946.267          913
 2012       946.52          902
 2013      946.772          896
 2014      947.025          888
 2015      947.277          882
 2016      947.529          888
 2017      947.781          892
 2018      948.032          891
 2019      948.284          891
 2020      948.535          895
 2021      948.786          902
 2022      949.037          898
 2023      949.288          891
 2024      949.538          888
 2025      949.789          884
 2026      950.039          887
 2027      950.289          895
 2028      950.539          899
 2029      950.788          903
 2030      951.038          905
 2031      951.287          898
 2032      951.536          893
 2033      951.785          898
 2034      952.034          902
 2035      952.282          895
 2036      952.531          900
 2037      952.779          908
 2038      953.027          903
 2039      953.275          901
 2040      953.523          898
 2041       953.77          895
 2042      954.017          905
 2043      954.264          909
 2044      954.511          907
 2045      954.758          909
 2046      955.005          910
 2047      955.251          905
