scansci Spectrometer Data File
--- Measurement Setting ---
Type: Sample Spectrum
Date: Wed May 26 15:33:13 2021
User: (Reserved by scansci)
Serial: (Reserved by scansci)
Channel: No. 11
Integration Time: 222
Average: 1
Boxcar: 0
Electrical Dark: No-corrected
Time Normalize: (Reserved by scansci)
Dual-beam: (Reserved by scansci)
Reference Ch: (Reserved by scansci)
--- Measurement Data ---
Pixel   Wavelength   Intensity
    0        162.5          839
    1      162.985          842
    2      163.469          845
    3      163.954          847
    4      164.439          861
    5      164.923          868
    6      165.408          855
    7      165.892          848
    8      166.377          850
    9      166.861          864
   10      167.345          869
   11       167.83          860
   12      168.314          856
   13      168.798          855
   14      169.282          853
   15      169.766          852
   16       170.25          845
   17      170.734          843
   18      171.218          846
   19      171.702          849
   20      172.185          857
   21      172.669          862
   22      173.153          855
   23      173.636          855
   24       174.12          860
   25      174.603          879
   26      175.087          886
   27       175.57          857
   28      176.053          845
   29      176.537          844
   30       177.02          836
   31      177.503          835
   32      177.986          832
   33      178.469          827
   34      178.952          840
   35      179.435          849
   36      179.918          854
   37      180.401          851
   38      180.884          836
   39      181.366          834
   40      181.849          838
   41      182.332          840
   42      182.814          845
   43      183.297          848
   44      183.779          840
   45      184.262          832
   46      184.744          835
   47      185.226          840
   48      185.708          841
   49      186.191          840
   50      186.673          842
   51      187.155          844
   52      187.637          837
   53      188.119          836
   54        188.6          843
   55      189.082          846
   56      189.564          851
   57      190.046          850
   58      190.527          857
   59      191.009          856
   60      191.491          849
   61      191.972          843
   62      192.454          844
   63      192.935          848
   64      193.416          853
   65      193.897          857
   66      194.379          875
   67       194.86          880
   68      195.341          862
   69      195.822          847
   70      196.303          835
   71      196.784          841
   72      197.265          849
   73      197.746          844
   74      198.226          843
   75      198.707          844
   76      199.188          850
   77      199.668          849
   78      200.149          846
   79      200.629          842
   80       201.11          845
   81       201.59          849
   82       202.07          843
   83       202.55          834
   84      203.031          826
   85      203.511          828
   86      203.991          831
   87      204.471          826
   88      204.951          827
   89      205.431          831
   90       205.91          832
   91       206.39          830
   92       206.87          829
   93      207.349          824
   94      207.829          833
   95      208.309          844
   96      208.788          845
   97      209.267          843
   98      209.747          834
   99      210.226          827
  100      210.705          832
  101      211.185          836
  102      211.664          832
  103      212.143          829
  104      212.622          821
  105      213.101          820
  106      213.579          821
  107      214.058          823
  108      214.537          828
  109      215.016          834
  110      215.494          825
  111      215.973          832
  112      216.452          834
  113       216.93          830
  114      217.408          832
  115      217.887          837
  116      218.365          841
  117      218.843          836
  118      219.321          831
  119      219.799          832
  120      220.278          845
  121      220.755          862
  122      221.233          867
  123      221.711          859
  124      222.189          853
  125      222.667          841
  126      223.144          836
  127      223.622          826
  128        224.1          824
  129      224.577          835
  130      225.055          841
  131      225.532          844
  132      226.009          845
  133      226.486          853
  134      226.964          851
  135      227.441          837
  136      227.918          840
  137      228.395          843
  138      228.872          830
  139      229.349          824
  140      229.826          835
  141      230.302          844
  142      230.779          848
  143      231.256          848
  144      231.732          849
  145      232.209          845
  146      232.685          839
  147      233.162          841
  148      233.638          839
  149      234.114          837
  150       234.59          834
  151      235.066          840
  152      235.543          846
  153      236.019          847
  154      236.495          837
  155       236.97          828
  156      237.446          829
  157      237.922          833
  158      238.398          838
  159      238.873          843
  160      239.349          840
  161      239.824          839
  162        240.3          844
  163      240.775          838
  164      241.251          837
  165      241.726          844
  166      242.201          849
  167      242.676          848
  168      243.151          843
  169      243.626          845
  170      244.101          850
  171      244.576          853
  172      245.051          854
  173      245.526          845
  174          246          835
  175      246.475          842
  176       246.95          846
  177      247.424          837
  178      247.899          835
  179      248.373          834
  180      248.847          839
  181      249.321          842
  182      249.796          845
  183       250.27          837
  184      250.744          829
  185      251.218          836
  186      251.692          842
  187      252.166          845
  188      252.639          844
  189      253.113          845
  190      253.587          848
  191       254.06          839
  192      254.534          832
  193      255.007          833
  194      255.481          837
  195      255.954          840
  196      256.427          842
  197      256.901          844
  198      257.374          837
  199      257.847          836
  200       258.32          837
  201      258.793          840
  202      259.266          844
  203      259.739          850
  204      260.211          851
  205      260.684          852
  206      261.157          852
  207      261.629          851
  208      262.102          849
  209      262.574          843
  210      263.046          849
  211      263.519          850
  212      263.991          845
  213      264.463          840
  214      264.935          841
  215      265.407          839
  216      265.879          844
  217      266.351          842
  218      266.823          833
  219      267.295          832
  220      267.766          837
  221      268.238          845
  222       268.71          851
  223      269.181          841
  224      269.653          835
  225      270.124          838
  226      270.595          836
  227      271.066          839
  228      271.538          836
  229      272.009          840
  230       272.48          844
  231      272.951          837
  232      273.422          840
  233      273.892          846
  234      274.363          842
  235      274.834          834
  236      275.305          836
  237      275.775          837
  238      276.246          837
  239      276.716          835
  240      277.186          831
  241      277.657          833
  242      278.127          837
  243      278.597          840
  244      279.067          834
  245      279.537          825
  246      280.007          827
  247      280.477          832
  248      280.947          836
  249      281.417          838
  250      281.886          835
  251      282.356          832
  252      282.825          836
  253      283.295          835
  254      283.764          834
  255      284.234          838
  256      284.703          852
  257      285.172          848
  258      285.641          838
  259       286.11          829
  260      286.579          824
  261      287.048          825
  262      287.517          831
  263      287.986          839
  264      288.454          845
  265      288.923          834
  266      289.392          829
  267       289.86          832
  268      290.329          837
  269      290.797          831
  270      291.265          833
  271      291.734          828
  272      292.202          824
  273       292.67          821
  274      293.138          826
  275      293.606          835
  276      294.074          833
  277      294.541          832
  278      295.009          833
  279      295.477          834
  280      295.944          839
  281      296.412          843
  282      296.879          834
  283      297.347          829
  284      297.814          837
  285      298.281          841
  286      298.749          851
  287      299.216          851
  288      299.683          845
  289       300.15          841
  290      300.616          835
  291      301.083          834
  292       301.55          835
  293      302.017          840
  294      302.483          835
  295       302.95          831
  296      303.416          836
  297      303.883          833
  298      304.349          836
  299      304.815          847
  300      305.281          841
  301      305.748          845
  302      306.214          858
  303       306.68          861
  304      307.146          865
  305      307.611          871
  306      308.077          877
  307      308.543          885
  308      309.008          873
  309      309.474          864
  310      309.939          866
  311      310.405          866
  312       310.87          865
  313      311.335          872
  314        311.8          881
  315      312.266          877
  316      312.731          874
  317      313.196          869
  318       313.66          871
  319      314.125          871
  320       314.59          867
  321      315.055          863
  322      315.519          861
  323      315.984          863
  324      316.448          861
  325      316.913          858
  326      317.377          854
  327      317.841          853
  328      318.305          858
  329      318.769          861
  330      319.233          865
  331      319.697          867
  332      320.161          862
  333      320.625          870
  334      321.089          883
  335      321.552          876
  336      322.016          865
  337      322.479          875
  338      322.943          890
  339      323.406          884
  340      323.869          874
  341      324.333          864
  342      324.796          861
  343      325.259          860
  344      325.722          856
  345      326.185          855
  346      326.647          852
  347       327.11          856
  348      327.573          863
  349      328.035          879
  350      328.498          883
  351       328.96          870
  352      329.423          860
  353      329.885          855
  354      330.347          860
  355       330.81          863
  356      331.272          866
  357      331.734          863
  358      332.196          854
  359      332.657          845
  360      333.119          844
  361      333.581          849
  362      334.043          870
  363      334.504          879
  364      334.966          881
  365      335.427          883
  366      335.888          879
  367       336.35          874
  368      336.811          869
  369      337.272          867
  370      337.733          866
  371      338.194          867
  372      338.655          862
  373      339.115          858
  374      339.576          868
  375      340.037          884
  376      340.497          905
  377      340.958          916
  378      341.418          906
  379      341.879          891
  380      342.339          880
  381      342.799          879
  382      343.259          909
  383      343.719          942
  384      344.179          955
  385      344.639          954
  386      345.099          950
  387      345.559          959
  388      346.018          968
  389      346.478          974
  390      346.937          965
  391      347.397          948
  392      347.856          933
  393      348.315          917
  394      348.774          918
  395      349.234          921
  396      349.693          912
  397      350.152          913
  398       350.61          948
  399      351.069          988
  400      351.528          996
  401      351.987          971
  402      352.445          943
  403      352.904          916
  404      353.362          900
  405       353.82          889
  406      354.279          886
  407      354.737          893
  408      355.195          897
  409      355.653          889
  410      356.111          885
  411      356.569          885
  412      357.027          886
  413      357.484          892
  414      357.942          903
  415      358.399          912
  416      358.857          922
  417      359.314          924
  418      359.772          911
  419      360.229          901
  420      360.686          898
  421      361.143          888
  422        361.6          877
  423      362.057          878
  424      362.514          887
  425      362.971          887
  426      363.427          883
  427      363.884          880
  428       364.34          873
  429      364.797          867
  430      365.253          867
  431      365.709          872
  432      366.166          877
  433      366.622          875
  434      367.078          882
  435      367.534          885
  436       367.99          885
  437      368.445          894
  438      368.901          904
  439      369.357          919
  440      369.812          921
  441      370.268          907
  442      370.723          891
  443      371.179          883
  444      371.634          880
  445      372.089          872
  446      372.544          875
  447      372.999          882
  448      373.454          888
  449      373.909          880
  450      374.364          874
  451      374.818          869
  452      375.273          862
  453      375.727          862
  454      376.182          865
  455      376.636          864
  456       377.09          874
  457      377.545          876
  458      377.999          875
  459      378.453          881
  460      378.907          885
  461      379.361          897
  462      379.814          902
  463      380.268          910
  464      380.722          927
  465      381.175          923
  466      381.629          921
  467      382.082          925
  468      382.535          922
  469      382.989          913
  470      383.442          910
  471      383.895          925
  472      384.348          931
  473      384.801          918
  474      385.253          917
  475      385.706          928
  476      386.159          939
  477      386.611          949
  478      387.064          958
  479      387.516          968
  480      387.968          961
  481      388.421          948
  482      388.873          945
  483      389.325          950
  484      389.777          954
  485      390.229          945
  486      390.681          932
  487      391.132          919
  488      391.584          914
  489      392.035          917
  490      392.487          923
  491      392.938          923
  492       393.39          922
  493      393.841          929
  494      394.292          927
  495      394.743          924
  496      395.194          912
  497      395.645          905
  498      396.096          909
  499      396.546          902
  500      396.997          896
  501      397.448          894
  502      397.898          885
  503      398.349          872
  504      398.799          873
  505      399.249          876
  506      399.699          886
  507      400.149          893
  508      400.599          887
  509      401.049          888
  510      401.499          888
  511      401.949          899
  512      402.398          907
  513      402.848          911
  514      403.297          913
  515      403.747          907
  516      404.196          905
  517      404.645          917
  518      405.094          919
  519      405.543          921
  520      405.992          921
  521      406.441          922
  522       406.89          915
  523      407.339          912
  524      407.787          916
  525      408.236          911
  526      408.684          909
  527      409.132          925
  528      409.581          944
  529      410.029          953
  530      410.477          954
  531      410.925          951
  532      411.373          942
  533      411.821          932
  534      412.269          923
  535      412.716          909
  536      413.164          916
  537      413.611          923
  538      414.059          907
  539      414.506          903
  540      414.953          901
  541        415.4          897
  542      415.847          892
  543      416.294          888
  544      416.741          901
  545      417.188          913
  546      417.635          917
  547      418.081          913
  548      418.528          923
  549      418.974          938
  550      419.421          934
  551      419.867          937
  552      420.313          945
  553      420.759          934
  554      421.205          933
  555      421.651          936
  556      422.097          936
  557      422.543          923
  558      422.989          913
  559      423.434          916
  560       423.88          924
  561      424.325          919
  562       424.77          911
  563      425.216          914
  564      425.661          916
  565      426.106          921
  566      426.551          927
  567      426.996          932
  568       427.44          942
  569      427.885          957
  570       428.33          960
  571      428.774          955
  572      429.219          961
  573      429.663          988
  574      430.107         1007
  575      430.551         1016
  576      430.996         1028
  577       431.44         1018
  578      431.883          992
  579      432.327          985
  580      432.771         1021
  581      433.215         1090
  582      433.658         1139
  583      434.102         1145
  584      434.545         1121
  585      434.988         1086
  586      435.431         1046
  587      435.875         1018
  588      436.318          995
  589      436.761          982
  590      437.203          984
  591      437.646          991
  592      438.089          993
  593      438.531          981
  594      438.974          966
  595      439.416          953
  596      439.859          945
  597      440.301          936
  598      440.743          934
  599      441.185          928
  600      441.627          919
  601      442.069          914
  602       442.51          915
  603      442.952          927
  604      443.394          944
  605      443.835          947
  606      444.277          946
  607      444.718          938
  608      445.159          932
  609        445.6          939
  610      446.041          935
  611      446.482          922
  612      446.923          913
  613      447.364          921
  614      447.804          930
  615      448.245          933
  616      448.685          929
  617      449.126          946
  618      449.566          976
  619      450.006          990
  620      450.447          994
  621      450.887          990
  622      451.326          997
  623      451.766         1001
  624      452.206          986
  625      452.646          981
  626      453.085          981
  627      453.525          974
  628      453.964          973
  629      454.403          978
  630      454.843          985
  631      455.282          981
  632      455.721          981
  633       456.16          991
  634      456.599          991
  635      457.037          990
  636      457.476          994
  637      457.915          986
  638      458.353          975
  639      458.791          970
  640       459.23          962
  641      459.668          957
  642      460.106          952
  643      460.544          936
  644      460.982          933
  645       461.42          937
  646      461.857          937
  647      462.295          922
  648      462.733          900
  649       463.17          898
  650      463.607          905
  651      464.045          908
  652      464.482          912
  653      464.919          911
  654      465.356          902
  655      465.793          895
  656       466.23          907
  657      466.666          932
  658      467.103          937
  659      467.539          945
  660      467.976          954
  661      468.412          950
  662      468.848          954
  663      469.284          951
  664       469.72          951
  665      470.156          956
  666      470.592          955
  667      471.028          955
  668      471.464          953
  669      471.899          941
  670      472.335          931
  671       472.77          929
  672      473.205          933
  673      473.641          928
  674      474.076          924
  675      474.511          915
  676      474.946          905
  677       475.38          905
  678      475.815          910
  679       476.25          916
  680      476.684          921
  681      477.119          923
  682      477.553          921
  683      477.987          913
  684      478.421          908
  685      478.856          909
  686      479.289          923
  687      479.723          935
  688      480.157          935
  689      480.591          928
  690      481.024          934
  691      481.458          947
  692      481.891          967
  693      482.324          986
  694      482.758          999
  695      483.191          997
  696      483.624          977
  697      484.057          967
  698      484.489         1003
  699      484.922         1281
  700      485.355         1822
  701      485.787         2205
  702       486.22         2211
  703      486.652         1980
  704      487.084         1677
  705      487.516         1428
  706      487.948         1255
  707       488.38         1155
  708      488.812         1090
  709      489.244         1047
  710      489.676         1019
  711      490.107          992
  712      490.539          976
  713       490.97          965
  714      491.401          956
  715      491.832          948
  716      492.263          943
  717      492.694          940
  718      493.125          938
  719      493.556          929
  720      493.987          923
  721      494.417          916
  722      494.848          908
  723      495.278          911
  724      495.708          913
  725      496.139          920
  726      496.569          925
  727      496.999          928
  728      497.429          925
  729      497.858          922
  730      498.288          919
  731      498.718          918
  732      499.147          929
  733      499.577          932
  734      500.006          927
  735      500.435          928
  736      500.864          926
  737      501.293          922
  738      501.722          922
  739      502.151          916
  740       502.58          907
  741      503.008          910
  742      503.437          923
  743      503.865          932
  744      504.293          948
  745      504.722          957
  746       505.15          944
  747      505.578          936
  748      506.006          936
  749      506.434          940
  750      506.861          954
  751      507.289          979
  752      507.716          992
  753      508.144          985
  754      508.571          970
  755      508.998          958
  756      509.425          955
  757      509.852          952
  758      510.279          950
  759      510.706          951
  760      511.133          948
  761       511.56          951
  762      511.986          952
  763      512.412          945
  764      512.839          948
  765      513.265          942
  766      513.691          933
  767      514.117          951
  768      514.543          966
  769      514.969          950
  770      515.395          938
  771       515.82          933
  772      516.246          937
  773      516.671          939
  774      517.096          926
  775      517.522          925
  776      517.947          941
  777      518.372          949
  778      518.797          947
  779      519.222          949
  780      519.646          946
  781      520.071          937
  782      520.495          923
  783       520.92          914
  784      521.344          905
  785      521.768          903
  786      522.192          912
  787      522.616          907
  788       523.04          906
  789      523.464          902
  790      523.888          897
  791      524.311          903
  792      524.735          910
  793      525.158          919
  794      525.581          923
  795      526.005          920
  796      526.428          919
  797      526.851          916
  798      527.274          935
  799      527.696          935
  800      528.119          904
  801      528.542          897
  802      528.964          899
  803      529.386          897
  804      529.809          893
  805      530.231          887
  806      530.653          889
  807      531.075          902
  808      531.497          908
  809      531.918          910
  810       532.34          925
  811      532.761          941
  812      533.183          965
  813      533.604          982
  814      534.025          979
  815      534.447          966
  816      534.868          951
  817      535.289          935
  818      535.709          932
  819       536.13          930
  820      536.551          921
  821      536.971          912
  822      537.392          908
  823      537.812          907
  824      538.232          910
  825      538.652          922
  826      539.072          976
  827      539.492         1045
  828      539.912         1074
  829      540.331         1058
  830      540.751         1024
  831       541.17          983
  832       541.59          948
  833      542.009          936
  834      542.428          929
  835      542.847          921
  836      543.266          913
  837      543.685          911
  838      544.104          912
  839      544.522          906
  840      544.941          905
  841      545.359          907
  842      545.778          905
  843      546.196          907
  844      546.614          905
  845      547.032          894
  846       547.45          900
  847      547.867          905
  848      548.285          906
  849      548.703          912
  850       549.12          908
  851      549.538          904
  852      549.955          905
  853      550.372          910
  854      550.789          913
  855      551.206          912
  856      551.623          914
  857      552.039          914
  858      552.456          916
  859      552.873          924
  860      553.289          920
  861      553.705          903
  862      554.121          901
  863      554.537          901
  864      554.953          909
  865      555.369          920
  866      555.785          921
  867      556.201          918
  868      556.616          916
  869      557.032          913
  870      557.447          910
  871      557.862          904
  872      558.277          903
  873      558.692          906
  874      559.107          908
  875      559.522          896
  876      559.937          899
  877      560.351          907
  878      560.766          906
  879       561.18          900
  880      561.595          885
  881      562.009          880
  882      562.423          884
  883      562.837          888
  884       563.25          887
  885      563.664          881
  886      564.078          875
  887      564.491          892
  888      564.905          917
  889      565.318          912
  890      565.731          906
  891      566.144          908
  892      566.557          905
  893       566.97          901
  894      567.383          902
  895      567.795          907
  896      568.208          924
  897       568.62          929
  898      569.033          920
  899      569.445          918
  900      569.857          910
  901      570.269          897
  902      570.681          898
  903      571.093          899
  904      571.504          901
  905      571.916          898
  906      572.327          892
  907      572.739          887
  908       573.15          888
  909      573.561          893
  910      573.972          908
  911      574.383          916
  912      574.794          921
  913      575.204          945
  914      575.615          988
  915      576.025         1017
  916      576.436         1024
  917      576.846         1003
  918      577.256          979
  919      577.666          954
  920      578.076          939
  921      578.486          932
  922      578.896          934
  923      579.305          940
  924      579.715          942
  925      580.124          959
  926      580.533          972
  927      580.942          989
  928      581.351         1015
  929       581.76         1042
  930      582.169         1052
  931      582.578         1049
  932      582.986         1063
  933      583.395         1218
  934      583.803         2465
  935      584.212         6154
  936       584.62        10639
  937      585.028        12788
  938      585.436        11834
  939      585.843         9095
  940      586.251         6401
  941      586.659         4628
  942      587.066         3919
  943      587.474         3953
  944      587.881         3980
  945      588.288         3591
  946      588.695         2929
  947      589.102         2293
  948      589.509         1850
  949      589.915         1557
  950      590.322         1370
  951      590.728         1237
  952      591.135         1153
  953      591.541         1098
  954      591.947         1072
  955      592.353         1064
  956      592.759         1157
  957      593.165         1793
  958      593.571         3233
  959      593.976         4544
  960      594.382         4828
  961      594.787         4197
  962      595.192         3222
  963      595.597         2441
  964      596.002         1950
  965      596.407         1789
  966      596.812         1865
  967      597.217         1897
  968      597.621         1782
  969      598.026         1601
  970       598.43         1403
  971      598.834         1247
  972      599.238         1142
  973      599.642         1071
  974      600.046         1039
  975       600.45         1015
  976      600.854          995
  977      601.257         1015
  978      601.661         1158
  979      602.064         1473
  980      602.467         1784
  981       602.87         1856
  982      603.273         1707
  983      603.676         1488
  984      604.079         1303
  985      604.481         1175
  986      604.884         1099
  987      605.286         1068
  988      605.689         1153
  989      606.091         1655
  990      606.493         2691
  991      606.895         3665
  992      607.297         3951
  993      607.698         3579
  994        608.1         3335
  995      608.501         4083
  996      608.903         5441
  997      609.304         6137
  998      609.705         5637
  999      610.106         4410
 1000      610.507         3227
 1001      610.908         2412
 1002      611.308         1882
 1003      611.709         1588
 1004      612.109         1457
 1005       612.51         1627
 1006       612.91         2744
 1007       613.31         5345
 1008       613.71         8057
 1009       614.11         8927
 1010       614.51         7819
 1011      614.909         6075
 1012      615.309         5044
 1013      615.708         4643
 1014      616.108         4163
 1015      616.507         3438
 1016      616.906         2684
 1017      617.305         2079
 1018      617.704         1668
 1019      618.102         1405
 1020      618.501         1235
 1021      618.899         1125
 1022      619.298         1061
 1023      619.696         1043
 1024      620.094         1114
 1025      620.492         1362
 1026       620.89         1733
 1027      621.288         1998
 1028      621.686         1989
 1029      622.083         1746
 1030       622.48         1468
 1031      622.878         1271
 1032      623.275         1156
 1033      623.672         1083
 1034      624.069         1037
 1035      624.466         1024
 1036      624.863         1144
 1037      625.259         1700
 1038      625.656         2807
 1039      626.052         3886
 1040      626.448         4198
 1041      626.844         3655
 1042      627.241         2806
 1043      627.636         2135
 1044      628.032         1695
 1045      628.428         1417
 1046      628.823         1344
 1047      629.219         1524
 1048      629.614         1886
 1049      630.009         2140
 1050      630.404         2086
 1051      630.799         1833
 1052      631.194         1569
 1053      631.589         1510
 1054      631.984         2003
 1055      632.378         3277
 1056      632.772         4666
 1057      633.167         5187
 1058      633.561         4624
 1059      633.955         3549
 1060      634.349         2629
 1061      634.743         2000
 1062      635.136         1599
 1063       635.53         1366
 1064      635.923         1243
 1065      636.316         1258
 1066       636.71         1656
 1067      637.103         2722
 1068      637.496         4205
 1069      637.888         5133
 1070      638.281         5285
 1071      638.674         5993
 1072      639.066         8547
 1073      639.459        11935
 1074      639.851        13669
 1075      640.243        12413
 1076      640.635         9268
 1077      641.027         6376
 1078      641.419         4401
 1079       641.81         3095
 1080      642.202         2274
 1081      642.593         1773
 1082      642.984         1479
 1083      643.375         1301
 1084      643.766         1187
 1085      644.157         1107
 1086      644.548         1058
 1087      644.939         1024
 1088      645.329          993
 1089       645.72          985
 1090       646.11          983
 1091        646.5          976
 1092       646.89          967
 1093       647.28          955
 1094       647.67          955
 1095       648.06          952
 1096      648.449         1020
 1097      648.839         1358
 1098      649.228         2376
 1099      649.617         4044
 1100      650.007         5572
 1101      650.396         6119
 1102      650.784         5350
 1103      651.173         3975
 1104      651.562         2979
 1105       651.95         2556
 1106      652.339         2464
 1107      652.727         2476
 1108      653.115         2397
 1109      653.503         2108
 1110      653.891         1740
 1111      654.279         1508
 1112      654.666         1591
 1113      655.054         2137
 1114      655.441         3261
 1115      655.828         4404
 1116      656.216         4645
 1117      656.603         3985
 1118      656.989         3041
 1119      657.376         2277
 1120      657.763         1773
 1121      658.149         1517
 1122      658.536         1623
 1123      658.922         2147
 1124      659.308         2755
 1125      659.694         2947
 1126       660.08         2617
 1127      660.466         2077
 1128      660.852         1654
 1129      661.237         1368
 1130      661.623         1182
 1131      662.008         1071
 1132      662.393         1009
 1133      662.778          972
 1134      663.163          946
 1135      663.548          928
 1136      663.933          909
 1137      664.317          901
 1138      664.702          901
 1139      665.086          905
 1140       665.47          930
 1141      665.854         1090
 1142      666.238         1627
 1143      666.622         2647
 1144      667.006         3804
 1145      667.389         4371
 1146      667.773         3965
 1147      668.156         3049
 1148      668.539         2256
 1149      668.923         1745
 1150      669.305         1433
 1151      669.688         1317
 1152      670.071         1491
 1153      670.454         1964
 1154      670.836         2588
 1155      671.218         2955
 1156      671.601         2753
 1157      671.983         2215
 1158      672.365         1729
 1159      672.747         1417
 1160      673.128         1203
 1161       673.51         1069
 1162      673.891          989
 1163      674.273          957
 1164      674.654          941
 1165      675.035          920
 1166      675.416          909
 1167      675.797          898
 1168      676.177          885
 1169      676.558          876
 1170      676.938          867
 1171      677.319          866
 1172      677.699          872
 1173      678.079          862
 1174      678.459          851
 1175      678.839          852
 1176      679.219          848
 1177      679.598          850
 1178      679.978          855
 1179      680.357          858
 1180      680.736          865
 1181      681.115          865
 1182      681.494          862
 1183      681.873          860
 1184      682.252          860
 1185       682.63          862
 1186      683.009          861
 1187      683.387          870
 1188      683.765          877
 1189      684.143          866
 1190      684.521          877
 1191      684.899          892
 1192      685.277          883
 1193      685.654          873
 1194      686.032          863
 1195      686.409          860
 1196      686.786          863
 1197      687.163          867
 1198       687.54          865
 1199      687.917          863
 1200      688.294          863
 1201       688.67          868
 1202      689.046          873
 1203      689.423          865
 1204      689.799          857
 1205      690.175          859
 1206      690.551          902
 1207      690.927         1077
 1208      691.302         1526
 1209      691.678         2211
 1210      692.053         2932
 1211      692.428         3303
 1212      692.804         3010
 1213      693.179         2368
 1214      693.553         1827
 1215      693.928         1485
 1216      694.303         1253
 1217      694.677         1099
 1218      695.052         1021
 1219      695.426          974
 1220        695.8          937
 1221      696.174          916
 1222      696.548          899
 1223      696.921          888
 1224      697.295          873
 1225      697.669          867
 1226      698.042          867
 1227      698.415          865
 1228      698.788          860
 1229      699.161          862
 1230      699.534          871
 1231      699.907          896
 1232      700.279          919
 1233      700.652          974
 1234      701.024         1190
 1235      701.396         1755
 1236      701.768         2725
 1237       702.14         3903
 1238      702.512         4746
 1239      702.883         4700
 1240      703.255         3832
 1241      703.626         2807
 1242      703.998         2098
 1243      704.369         1661
 1244       704.74         1373
 1245      705.111         1196
 1246      705.481         1091
 1247      705.852         1012
 1248      706.222          956
 1249      706.593          927
 1250      706.963          911
 1251      707.333          897
 1252      707.703          882
 1253      708.073          870
 1254      708.442          867
 1255      708.812          857
 1256      709.181          851
 1257      709.551          852
 1258       709.92          850
 1259      710.289          851
 1260      710.658          853
 1261      711.027          857
 1262      711.395          858
 1263      711.764          855
 1264      712.132          854
 1265        712.5          849
 1266      712.869          845
 1267      713.236          843
 1268      713.604          848
 1269      713.972          863
 1270       714.34          872
 1271      714.707          868
 1272      715.074          874
 1273      715.442          913
 1274      715.809          994
 1275      716.176         1099
 1276      716.542         1176
 1277      716.909         1202
 1278      717.276         1144
 1279      717.642         1046
 1280      718.008          962
 1281      718.374          914
 1282       718.74          896
 1283      719.106          876
 1284      719.472          863
 1285      719.838          866
 1286      720.203          862
 1287      720.568          859
 1288      720.934          858
 1289      721.299          855
 1290      721.664          867
 1291      722.029          913
 1292      722.393         1030
 1293      722.758         1240
 1294      723.122         1525
 1295      723.486         1836
 1296      723.851         2046
 1297      724.215         1946
 1298      724.578         1621
 1299      724.942         1335
 1300      725.306         1151
 1301      725.669         1039
 1302      726.033          963
 1303      726.396          924
 1304      726.759          953
 1305      727.122          969
 1306      727.485          925
 1307      727.847          887
 1308       728.21          865
 1309      728.572          862
 1310      728.935          867
 1311      729.297          861
 1312      729.659          862
 1313      730.021          869
 1314      730.382          871
 1315      730.744          868
 1316      731.105          863
 1317      731.467          849
 1318      731.828          842
 1319      732.189          835
 1320       732.55          830
 1321      732.911          830
 1322      733.271          825
 1323      733.632          825
 1324      733.992          831
 1325      734.352          836
 1326      734.713          841
 1327      735.072          845
 1328      735.432          841
 1329      735.792          837
 1330      736.152          836
 1331      736.511          839
 1332       736.87          838
 1333      737.229          837
 1334      737.589          840
 1335      737.947          834
 1336      738.306          833
 1337      738.665          830
 1338      739.023          826
 1339      739.382          837
 1340       739.74          845
 1341      740.098          845
 1342      740.456          851
 1343      740.814          856
 1344      741.171          861
 1345      741.529          886
 1346      741.886          929
 1347      742.244          974
 1348      742.601         1018
 1349      742.958         1056
 1350      743.314         1057
 1351      743.671         1021
 1352      744.028          967
 1353      744.384          922
 1354       744.74          890
 1355      745.097          871
 1356      745.453          857
 1357      745.809          849
 1358      746.164          853
 1359       746.52          858
 1360      746.875          873
 1361      747.231          889
 1362      747.586          903
 1363      747.941          911
 1364      748.296          916
 1365      748.651          905
 1366      749.005          889
 1367       749.36          869
 1368      749.714          876
 1369      750.069          885
 1370      750.423          871
 1371      750.777          865
 1372       751.13          867
 1373      751.484          878
 1374      751.838          903
 1375      752.191          926
 1376      752.544          934
 1377      752.897          932
 1378       753.25          937
 1379      753.603          928
 1380      753.956          910
 1381      754.309          893
 1382      754.661          869
 1383      755.013          851
 1384      755.365          845
 1385      755.717          842
 1386      756.069          835
 1387      756.421          836
 1388      756.773          836
 1389      757.124          835
 1390      757.476          842
 1391      757.827          837
 1392      758.178          840
 1393      758.529          835
 1394      758.879          829
 1395       759.23          830
 1396      759.581          843
 1397      759.931          859
 1398      760.281          863
 1399      760.631          857
 1400      760.981          851
 1401      761.331          854
 1402      761.681          852
 1403       762.03          844
 1404      762.379          840
 1405      762.729          839
 1406      763.078          842
 1407      763.427          846
 1408      763.776          848
 1409      764.124          841
 1410      764.473          836
 1411      764.821          834
 1412      765.169          837
 1413      765.517          843
 1414      765.865          843
 1415      766.213          840
 1416      766.561          841
 1417      766.909          838
 1418      767.256          833
 1419      767.603          829
 1420       767.95          837
 1421      768.297          843
 1422      768.644          841
 1423      768.991          837
 1424      769.337          836
 1425      769.684          838
 1426       770.03          834
 1427      770.376          837
 1428      770.722          841
 1429      771.068          831
 1430      771.414          831
 1431      771.759          834
 1432      772.105          833
 1433       772.45          835
 1434      772.795          836
 1435       773.14          836
 1436      773.485          833
 1437       773.83          843
 1438      774.174          852
 1439      774.519          857
 1440      774.863          866
 1441      775.207          879
 1442      775.551          901
 1443      775.895          920
 1444      776.239          934
 1445      776.582          951
 1446      776.926          960
 1447      777.269          944
 1448      777.612          907
 1449      777.955          880
 1450      778.298          873
 1451      778.641          872
 1452      778.983          857
 1453      779.326          852
 1454      779.668          855
 1455       780.01          847
 1456      780.352          834
 1457      780.694          824
 1458      781.036          824
 1459      781.377          829
 1460      781.719          835
 1461       782.06          838
 1462      782.401          839
 1463      782.742          838
 1464      783.083          838
 1465      783.424          839
 1466      783.764          846
 1467      784.105          841
 1468      784.445          838
 1469      784.785          837
 1470      785.125          838
 1471      785.465          843
 1472      785.805          849
 1473      786.144          857
 1474      786.484          859
 1475      786.823          849
 1476      787.162          841
 1477      787.501          830
 1478       787.84          821
 1479      788.178          819
 1480      788.517          825
 1481      788.855          839
 1482      789.194          843
 1483      789.532          849
 1484       789.87          853
 1485      790.208          848
 1486      790.545          847
 1487      790.883          855
 1488       791.22          858
 1489      791.557          850
 1490      791.894          844
 1491      792.231          844
 1492      792.568          832
 1493      792.905          824
 1494      793.241          833
 1495      793.578          840
 1496      793.914          848
 1497       794.25          847
 1498      794.586          842
 1499      794.922          842
 1500      795.257          841
 1501      795.593          840
 1502      795.928          846
 1503      796.263          837
 1504      796.598          833
 1505      796.933          837
 1506      797.268          828
 1507      797.603          820
 1508      797.937          818
 1509      798.271          816
 1510      798.606          825
 1511       798.94          838
 1512      799.274          846
 1513      799.607          847
 1514      799.941          839
 1515      800.274          837
 1516      800.608          839
 1517      800.941          838
 1518      801.274          838
 1519      801.607          844
 1520      801.939          844
 1521      802.272          832
 1522      802.604          829
 1523      802.936          829
 1524      803.269          821
 1525      803.601          820
 1526      803.932          827
 1527      804.264          829
 1528      804.596          824
 1529      804.927          830
 1530      805.258          838
 1531      805.589          837
 1532       805.92          831
 1533      806.251          840
 1534      806.582          846
 1535      806.912          848
 1536      807.242          847
 1537      807.573          841
 1538      807.903          848
 1539      808.232          841
 1540      808.562          835
 1541      808.892          835
 1542      809.221          826
 1543      809.551          830
 1544       809.88          836
 1545      810.209          835
 1546      810.538          834
 1547      810.866          836
 1548      811.195          849
 1549      811.523          859
 1550      811.851          859
 1551       812.18          855
 1552      812.507          853
 1553      812.835          839
 1554      813.163          829
 1555       813.49          831
 1556      813.818          835
 1557      814.145          831
 1558      814.472          826
 1559      814.799          825
 1560      815.126          845
 1561      815.452          853
 1562      815.779          844
 1563      816.105          835
 1564      816.431          839
 1565      816.757          842
 1566      817.083          840
 1567      817.409          840
 1568      817.734          836
 1569       818.06          827
 1570      818.385          820
 1571       818.71          819
 1572      819.035          824
 1573       819.36          829
 1574      819.685          826
 1575      820.009          819
 1576      820.333          813
 1577      820.658          824
 1578      820.982          832
 1579      821.305          833
 1580      821.629          836
 1581      821.953          841
 1582      822.276          845
 1583        822.6          834
 1584      822.923          833
 1585      823.246          840
 1586      823.569          836
 1587      823.891          835
 1588      824.214          837
 1589      824.536          828
 1590      824.858          818
 1591       825.18          816
 1592      825.502          825
 1593      825.824          833
 1594      826.146          832
 1595      826.467          829
 1596      826.789          829
 1597       827.11          831
 1598      827.431          828
 1599      827.752          824
 1600      828.072          830
 1601      828.393          849
 1602      828.713          859
 1603      829.034          856
 1604      829.354          847
 1605      829.674          839
 1606      829.993          833
 1607      830.313          826
 1608      830.633          827
 1609      830.952          826
 1610      831.271          824
 1611       831.59          825
 1612      831.909          834
 1613      832.228          840
 1614      832.546          837
 1615      832.865          834
 1616      833.183          835
 1617      833.501          831
 1618      833.819          824
 1619      834.137          823
 1620      834.455          825
 1621      834.772          823
 1622      835.089          833
 1623      835.407          845
 1624      835.724          843
 1625       836.04          838
 1626      836.357          835
 1627      836.674          829
 1628       836.99          828
 1629      837.306          862
 1630      837.623          882
 1631      837.939          864
 1632      838.254          857
 1633       838.57          849
 1634      838.886          841
 1635      839.201          836
 1636      839.516          837
 1637      839.831          838
 1638      840.146          833
 1639      840.461          829
 1640      840.775          831
 1641       841.09          827
 1642      841.404          828
 1643      841.718          835
 1644      842.032          838
 1645      842.346          839
 1646      842.659          837
 1647      842.973          826
 1648      843.286          823
 1649      843.599          839
 1650      843.912          844
 1651      844.225          841
 1652      844.538          845
 1653      844.851          841
 1654      845.163          837
 1655      845.475          844
 1656      845.787          846
 1657      846.099          848
 1658      846.411          856
 1659      846.723          844
 1660      847.034          833
 1661      847.345          830
 1662      847.657          823
 1663      847.968          818
 1664      848.278          813
 1665      848.589          813
 1666        848.9          821
 1667       849.21          827
 1668       849.52          828
 1669       849.83          822
 1670       850.14          823
 1671       850.45          827
 1672      850.759          834
 1673      851.069          830
 1674      851.378          827
 1675      851.687          833
 1676      851.996          839
 1677      852.305          841
 1678      852.614          837
 1679      852.922          831
 1680       853.23          827
 1681      853.539          828
 1682      853.847          819
 1683      854.154          815
 1684      854.462          817
 1685       854.77          822
 1686      855.077          827
 1687      855.384          829
 1688      855.691          833
 1689      855.998          829
 1690      856.305          837
 1691      856.612          839
 1692      856.918          842
 1693      857.224          839
 1694       857.53          834
 1695      857.836          841
 1696      858.142          839
 1697      858.448          830
 1698      858.753          828
 1699      859.059          827
 1700      859.364          824
 1701      859.669          818
 1702      859.974          821
 1703      860.278          831
 1704      860.583          831
 1705      860.887          825
 1706      861.192          836
 1707      861.496          839
 1708        861.8          826
 1709      862.103          826
 1710      862.407          824
 1711       862.71          830
 1712      863.014          834
 1713      863.317          832
 1714       863.62          833
 1715      863.922          828
 1716      864.225          821
 1717      864.527          818
 1718       864.83          822
 1719      865.132          824
 1720      865.434          832
 1721      865.736          848
 1722      866.037          851
 1723      866.339          848
 1724       866.64          839
 1725      866.941          840
 1726      867.242          849
 1727      867.543          847
 1728      867.844          849
 1729      868.145          849
 1730      868.445          844
 1731      868.745          836
 1732      869.045          829
 1733      869.345          818
 1734      869.645          827
 1735      869.944          838
 1736      870.244          836
 1737      870.543          831
 1738      870.842          836
 1739      871.141          832
 1740       871.44          823
 1741      871.739          819
 1742      872.037          815
 1743      872.335          816
 1744      872.634          815
 1745      872.931          814
 1746      873.229          815
 1747      873.527          814
 1748      873.824          818
 1749      874.122          822
 1750      874.419          817
 1751      874.716          822
 1752      875.013          825
 1753      875.309          822
 1754      875.606          819
 1755      875.902          824
 1756      876.199          825
 1757      876.495          822
 1758       876.79          824
 1759      877.086          825
 1760      877.382          824
 1761      877.677          822
 1762      877.972          825
 1763      878.267          831
 1764      878.562          827
 1765      878.857          830
 1766      879.152          825
 1767      879.446          811
 1768       879.74          801
 1769      880.034          801
 1770      880.328          812
 1771      880.622          813
 1772      880.916          819
 1773      881.209          826
 1774      881.502          829
 1775      881.795          833
 1776      882.088          832
 1777      882.381          822
 1778      882.674          812
 1779      882.966          810
 1780      883.258          820
 1781      883.551          823
 1782      883.843          816
 1783      884.134          823
 1784      884.426          831
 1785      884.717          821
 1786      885.009          822
 1787        885.3          823
 1788      885.591          831
 1789      885.882          837
 1790      886.172          841
 1791      886.463          842
 1792      886.753          839
 1793      887.043          832
 1794      887.333          839
 1795      887.623          849
 1796      887.913          841
 1797      888.202          836
 1798      888.492          845
 1799      888.781          854
 1800       889.07          846
 1801      889.359          839
 1802      889.647          838
 1803      889.936          837
 1804      890.224          839
 1805      890.512          848
 1806        890.8          847
 1807      891.088          840
 1808      891.376          839
 1809      891.663          836
 1810      891.951          844
 1811      892.238          846
 1812      892.525          840
 1813      892.812          835
 1814      893.099          839
 1815      893.385          842
 1816      893.671          835
 1817      893.958          828
 1818      894.244          823
 1819       894.53          822
 1820      894.815          826
 1821      895.101          830
 1822      895.386          833
 1823      895.671          831
 1824      895.956          832
 1825      896.241          830
 1826      896.526          827
 1827       896.81          828
 1828      897.095          833
 1829      897.379          841
 1830      897.663          841
 1831      897.947          830
 1832      898.231          825
 1833      898.514          831
 1834      898.798          835
 1835      899.081          829
 1836      899.364          828
 1837      899.647          831
 1838      899.929          827
 1839      900.212          818
 1840      900.494          816
 1841      900.776          826
 1842      901.058          833
 1843       901.34          836
 1844      901.622          833
 1845      901.904          820
 1846      902.185          816
 1847      902.466          817
 1848      902.747          830
 1849      903.028          844
 1850      903.309          836
 1851      903.589          820
 1852       903.87          817
 1853       904.15          818
 1854       904.43          819
 1855       904.71          821
 1856      904.989          825
 1857      905.269          828
 1858      905.548          833
 1859      905.827          833
 1860      906.106          835
 1861      906.385          835
 1862      906.664          841
 1863      906.942          844
 1864      907.221          840
 1865      907.499          830
 1866      907.777          825
 1867      908.055          825
 1868      908.332          825
 1869       908.61          841
 1870      908.887          857
 1871      909.164          851
 1872      909.441          844
 1873      909.718          837
 1874      909.995          832
 1875      910.271          830
 1876      910.548          833
 1877      910.824          832
 1878        911.1          825
 1879      911.375          823
 1880      911.651          824
 1881      911.927          824
 1882      912.202          822
 1883      912.477          822
 1884      912.752          823
 1885      913.027          821
 1886      913.301          823
 1887      913.576          823
 1888       913.85          820
 1889      914.124          820
 1890      914.398          820
 1891      914.672          822
 1892      914.945          830
 1893      915.219          834
 1894      915.492          837
 1895      915.765          848
 1896      916.038          845
 1897      916.311          829
 1898      916.583          820
 1899      916.856          816
 1900      917.128          812
 1901        917.4          810
 1902      917.672          815
 1903      917.944          816
 1904      918.215          816
 1905      918.486          819
 1906      918.758          821
 1907      919.029          825
 1908      919.299          825
 1909       919.57          818
 1910      919.841          817
 1911      920.111          815
 1912      920.381          816
 1913      920.651          813
 1914      920.921          808
 1915      921.191          814
 1916       921.46          817
 1917      921.729          821
 1918      921.999          824
 1919      922.268          821
 1920      922.536          815
 1921      922.805          810
 1922      923.073          813
 1923      923.342          821
 1924       923.61          822
 1925      923.878          826
 1926      924.145          823
 1927      924.413          817
 1928       924.68          814
 1929      924.948          814
 1930      925.215          819
 1931      925.482          816
 1932      925.748          813
 1933      926.015          817
 1934      926.281          817
 1935      926.547          821
 1936      926.813          827
 1937      927.079          825
 1938      927.345          824
 1939       927.61          820
 1940      927.876          815
 1941      928.141          811
 1942      928.406          812
 1943      928.671          820
 1944      928.935          823
 1945        929.2          821
 1946      929.464          816
 1947      929.728          821
 1948      929.992          833
 1949      930.256          832
 1950       930.52          829
 1951      930.783          832
 1952      931.046          828
 1953      931.309          832
 1954      931.572          843
 1955      931.835          839
 1956      932.097          836
 1957       932.36          827
 1958      932.622          818
 1959      932.884          819
 1960      933.146          828
 1961      933.408          826
 1962      933.669          824
 1963       933.93          821
 1964      934.192          812
 1965      934.453          810
 1966      934.713          807
 1967      934.974          815
 1968      935.234          823
 1969      935.495          825
 1970      935.755          832
 1971      936.015          834
 1972      936.274          821
 1973      936.534          816
 1974      936.793          824
 1975      937.053          828
 1976      937.312          823
 1977      937.571          825
 1978      937.829          829
 1979      938.088          827
 1980      938.346          829
 1981      938.604          830
 1982      938.862          826
 1983       939.12          825
 1984      939.378          827
 1985      939.635          829
 1986      939.893          827
 1987       940.15          823
 1988      940.407          829
 1989      940.663          832
 1990       940.92          832
 1991      941.176          820
 1992      941.433          818
 1993      941.689          823
 1994      941.944          834
 1995        942.2          849
 1996      942.456          846
 1997      942.711          835
 1998      942.966          834
 1999      943.221          840
 2000      943.476          845
 2001      943.731          841
 2002      943.985          836
 2003      944.239          835
 2004      944.493          845
 2005      944.747          849
 2006      945.001          839
 2007      945.255          836
 2008      945.508          836
 2009      945.761          832
 2010      946.014          826
 2011      946.267          821
 2012       946.52          811
 2013      946.772          808
 2014      947.025          804
 2015      947.277          805
 2016      947.529          817
 2017      947.781          827
 2018      948.032          824
 2019      948.284          825
 2020      948.535          829
 2021      948.786          831
 2022      949.037          829
 2023      949.288          822
 2024      949.538          819
 2025      949.789          813
 2026      950.039          820
 2027      950.289          825
 2028      950.539          829
 2029      950.788          826
 2030      951.038          824
 2031      951.287          821
 2032      951.536          818
 2033      951.785          818
 2034      952.034          820
 2035      952.282          820
 2036      952.531          819
 2037      952.779          825
 2038      953.027          837
 2039      953.275          843
 2040      953.523          839
 2041       953.77          834
 2042      954.017          832
 2043      954.264          822
 2044      954.511          826
 2045      954.758          833
 2046      955.005          825
 2047      955.251          815
