scansci Spectrometer Data File
--- Measurement Setting ---
Type: Sample Spectrum
Date: Wed May 26 15:53:21 2021
User: (Reserved by scansci)
Serial: (Reserved by scansci)
Channel: No. 11
Integration Time: 62
Average: 1
Boxcar: 0
Electrical Dark: No-corrected
Time Normalize: (Reserved by scansci)
Dual-beam: (Reserved by scansci)
Reference Ch: (Reserved by scansci)
--- Measurement Data ---
Pixel   Wavelength   Intensity
    0        344.4          928
    1      344.867          925
    2      345.334          933
    3      345.801          933
    4      346.268          926
    5      346.735          925
    6      347.202          929
    7      347.669          932
    8      348.135          931
    9      348.602          931
   10      349.068          929
   11      349.535          928
   12      350.001          923
   13      350.467          918
   14      350.933          921
   15      351.399          930
   16      351.866          934
   17      352.331          934
   18      352.797          929
   19      353.263          929
   20      353.729          930
   21      354.194          925
   22       354.66          924
   23      355.126          926
   24      355.591          933
   25      356.056          940
   26      356.522          936
   27      356.987          933
   28      357.452          936
   29      357.917          938
   30      358.382          934
   31      358.847          937
   32      359.312          947
   33      359.776          945
   34      360.241          937
   35      360.706          933
   36       361.17          934
   37      361.634          936
   38      362.099          939
   39      362.563          931
   40      363.027          920
   41      363.491          922
   42      363.955          932
   43      364.419          937
   44      364.883          936
   45      365.347          938
   46      365.811          940
   47      366.274          931
   48      366.738          922
   49      367.201          924
   50      367.665          929
   51      368.128          925
   52      368.592          926
   53      369.055          931
   54      369.518          933
   55      369.981          933
   56      370.444          934
   57      370.907          936
   58       371.37          933
   59      371.832          929
   60      372.295          929
   61      372.757          930
   62       373.22          934
   63      373.682          931
   64      374.145          929
   65      374.607          927
   66      375.069          927
   67      375.531          931
   68      375.993          935
   69      376.455          940
   70      376.917          944
   71      377.379          937
   72      377.841          932
   73      378.302          931
   74      378.764          929
   75      379.225          923
   76      379.687          921
   77      380.148          926
   78      380.609          930
   79      381.071          934
   80      381.532          934
   81      381.993          930
   82      382.454          929
   83      382.915          923
   84      383.375          922
   85      383.836          928
   86      384.297          931
   87      384.757          933
   88      385.218          934
   89      385.678          935
   90      386.138          940
   91      386.599          936
   92      387.059          934
   93      387.519          933
   94      387.979          930
   95      388.439          933
   96      388.899          934
   97      389.358          938
   98      389.818          937
   99      390.278          937
  100      390.737          935
  101      391.197          935
  102      391.656          937
  103      392.115          939
  104      392.575          934
  105      393.034          925
  106      393.493          927
  107      393.952          932
  108      394.411          938
  109       394.87          937
  110      395.328          936
  111      395.787          936
  112      396.246          932
  113      396.704          936
  114      397.163          941
  115      397.621          942
  116      398.079          942
  117      398.537          938
  118      398.995          927
  119      399.454          927
  120      399.911          932
  121      400.369          928
  122      400.827          923
  123      401.285          921
  124      401.743          922
  125        402.2          928
  126      402.658          930
  127      403.115          923
  128      403.572          929
  129       404.03          934
  130      404.487          937
  131      404.944          944
  132      405.401          945
  133      405.858          943
  134      406.315          936
  135      406.771          928
  136      407.228          922
  137      407.685          924
  138      408.141          935
  139      408.598          940
  140      409.054          938
  141       409.51          935
  142      409.967          939
  143      410.423          945
  144      410.879          945
  145      411.335          945
  146      411.791          942
  147      412.246          937
  148      412.702          939
  149      413.158          938
  150      413.613          934
  151      414.069          935
  152      414.524          938
  153       414.98          938
  154      415.435          932
  155       415.89          925
  156      416.345          928
  157        416.8          930
  158      417.255          929
  159       417.71          930
  160      418.165          928
  161      418.619          923
  162      419.074          923
  163      419.529          929
  164      419.983          925
  165      420.437          924
  166      420.892          924
  167      421.346          930
  168        421.8          939
  169      422.254          933
  170      422.708          933
  171      423.162          934
  172      423.616          933
  173       424.07          933
  174      424.523          936
  175      424.977          941
  176       425.43          949
  177      425.884          952
  178      426.337          953
  179       426.79          949
  180      427.243          937
  181      427.697          934
  182       428.15          938
  183      428.602          940
  184      429.055          944
  185      429.508          948
  186      429.961          945
  187      430.413          946
  188      430.866          941
  189      431.318          937
  190      431.771          941
  191      432.223          938
  192      432.675          929
  193      433.127          922
  194      433.579          929
  195      434.031          939
  196      434.483          935
  197      434.935          933
  198      435.387          938
  199      435.838          934
  200       436.29          936
  201      436.741          942
  202      437.193          944
  203      437.644          944
  204      438.095          943
  205      438.546          940
  206      438.997          937
  207      439.448          932
  208      439.899          934
  209       440.35          933
  210      440.801          936
  211      441.251          939
  212      441.702          938
  213      442.152          932
  214      442.603          925
  215      443.053          929
  216      443.503          934
  217      443.954          935
  218      444.404          937
  219      444.854          930
  220      445.304          924
  221      445.753          923
  222      446.203          925
  223      446.653          933
  224      447.102          945
  225      447.552          950
  226      448.001          949
  227      448.451          941
  228        448.9          937
  229      449.349          935
  230      449.798          932
  231      450.247          933
  232      450.696          938
  233      451.145          934
  234      451.594          937
  235      452.042          938
  236      452.491          937
  237      452.939          940
  238      453.388          944
  239      453.836          942
  240      454.285          940
  241      454.733          941
  242      455.181          941
  243      455.629          938
  244      456.077          937
  245      456.525          937
  246      456.972          936
  247       457.42          934
  248      457.868          934
  249      458.315          934
  250      458.763          935
  251       459.21          930
  252      459.657          924
  253      460.104          923
  254      460.552          928
  255      460.999          938
  256      461.446          945
  257      461.892          942
  258      462.339          939
  259      462.786          939
  260      463.233          936
  261      463.679          934
  262      464.125          934
  263      464.572          933
  264      465.018          933
  265      465.464          926
  266       465.91          923
  267      466.356          930
  268      466.802          934
  269      467.248          933
  270      467.694          929
  271       468.14          925
  272      468.585          930
  273      469.031          931
  274      469.476          924
  275      469.922          936
  276      470.367          949
  277      470.812          949
  278      471.257          936
  279      471.702          926
  280      472.147          935
  281      472.592          940
  282      473.037          929
  283      473.482          921
  284      473.926          916
  285      474.371          923
  286      474.815          930
  287      475.259          923
  288      475.704          923
  289      476.148          927
  290      476.592          928
  291      477.036          931
  292       477.48          939
  293      477.924          941
  294      478.368          937
  295      478.811          933
  296      479.255          933
  297      479.698          932
  298      480.142          934
  299      480.585          936
  300      481.028          934
  301      481.472          933
  302      481.915          937
  303      482.358          940
  304      482.801          940
  305      483.244          938
  306      483.686          939
  307      484.129          940
  308      484.572          936
  309      485.014          932
  310      485.456          930
  311      485.899          930
  312      486.341          935
  313      486.783          932
  314      487.225          932
  315      487.667          940
  316      488.109          936
  317      488.551          932
  318      488.993          936
  319      489.434          944
  320      489.876          944
  321      490.318          943
  322      490.759          942
  323        491.2          942
  324      491.641          945
  325      492.083          949
  326      492.524          952
  327      492.965          949
  328      493.406          950
  329      493.846          949
  330      494.287          946
  331      494.728          948
  332      495.168          946
  333      495.609          939
  334      496.049          931
  335      496.489          929
  336       496.93          932
  337       497.37          936
  338       497.81          934
  339       498.25          936
  340       498.69          940
  341      499.129          946
  342      499.569          951
  343      500.009          961
  344      500.448         1017
  345      500.888         1135
  346      501.327         1254
  347      501.766         1326
  348      502.206         1312
  349      502.645         1214
  350      503.084         1109
  351      503.523         1043
  352      503.961         1019
  353        504.4         1002
  354      504.839          980
  355      505.277          968
  356      505.716          965
  357      506.154          964
  358      506.593          955
  359      507.031          943
  360      507.469          937
  361      507.907          942
  362      508.345          949
  363      508.783          954
  364      509.221          956
  365      509.659          950
  366      510.096          941
  367      510.534          937
  368      510.971          936
  369      511.409          937
  370      511.846          936
  371      512.283          939
  372       512.72          943
  373      513.157          940
  374      513.594          940
  375      514.031          937
  376      514.468          931
  377      514.905          928
  378      515.341          929
  379      515.778          926
  380      516.214          927
  381       516.65          930
  382      517.087          937
  383      517.523          941
  384      517.959          944
  385      518.395          941
  386      518.831          944
  387      519.267          950
  388      519.702          952
  389      520.138          953
  390      520.574          954
  391      521.009          948
  392      521.444          946
  393       521.88          946
  394      522.315          943
  395       522.75          944
  396      523.185          939
  397       523.62          938
  398      524.055          938
  399       524.49          935
  400      524.924          931
  401      525.359          931
  402      525.794          932
  403      526.228          935
  404      526.662          944
  405      527.097          948
  406      527.531          947
  407      527.965          949
  408      528.399          953
  409      528.833          951
  410      529.267          943
  411        529.7          936
  412      530.134          936
  413      530.568          943
  414      531.001          948
  415      531.434          947
  416      531.868          947
  417      532.301          945
  418      532.734          945
  419      533.167          953
  420        533.6          954
  421      534.033          945
  422      534.466          942
  423      534.898          942
  424      535.331          944
  425      535.763          945
  426      536.196          945
  427      536.628          949
  428       537.06          941
  429      537.493          944
  430      537.925          952
  431      538.357          950
  432      538.788          946
  433       539.22          949
  434      539.652          952
  435      540.084          945
  436      540.515          940
  437      540.947          945
  438      541.378          947
  439      541.809          951
  440       542.24          949
  441      542.672          947
  442      543.103          947
  443      543.533          950
  444      543.964          955
  445      544.395          953
  446      544.826          948
  447      545.256          945
  448      545.687          948
  449      546.117          947
  450      546.547          952
  451      546.978          955
  452      547.408          952
  453      547.838          952
  454      548.268          957
  455      548.698          960
  456      549.127          959
  457      549.557          964
  458      549.987          954
  459      550.416          948
  460      550.846          948
  461      551.275          939
  462      551.704          940
  463      552.133          936
  464      552.562          933
  465      552.991          938
  466       553.42          948
  467      553.849          955
  468      554.278          952
  469      554.706          950
  470      555.135          947
  471      555.563          952
  472      555.991          958
  473       556.42          955
  474      556.848          951
  475      557.276          951
  476      557.704          955
  477      558.132          960
  478       558.56          958
  479      558.987          953
  480      559.415          951
  481      559.843          950
  482       560.27          954
  483      560.697          965
  484      561.125          969
  485      561.552          963
  486      561.979          961
  487      562.406          962
  488      562.833          956
  489       563.26          958
  490      563.686          968
  491      564.113          968
  492       564.54          970
  493      564.966          975
  494      565.392          980
  495      565.819          985
  496      566.245          985
  497      566.671          980
  498      567.097          974
  499      567.523          979
  500      567.949          991
  501      568.374          993
  502        568.8          992
  503      569.226          992
  504      569.651          998
  505      570.077         1004
  506      570.502         1007
  507      570.927         1016
  508      571.352         1031
  509      571.777         1045
  510      572.202         1050
  511      572.627         1063
  512      573.052         1083
  513      573.476         1093
  514      573.901         1088
  515      574.325         1080
  516       574.75         1091
  517      575.174         1105
  518      575.598         1110
  519      576.022         1120
  520      576.446         1130
  521       576.87         1143
  522      577.294         1152
  523      577.718         1166
  524      578.142         1189
  525      578.565         1202
  526      578.989         1212
  527      579.412         1225
  528      579.835         1243
  529      580.259         1258
  530      580.682         1279
  531      581.105         1317
  532      581.528         1367
  533      581.951         1421
  534      582.373         1481
  535      582.796         1532
  536      583.219         1587
  537      583.641         1667
  538      584.063         1748
  539      584.486         1851
  540      584.908         2018
  541       585.33         2279
  542      585.752         2780
  543      586.174         5172
  544      586.596        11388
  545      587.018        16383
  546      587.439        16383
  547      587.861        16383
  548      588.282        16383
  549      588.704        16383
  550      589.125        16383
  551      589.546        11580
  552      589.967         8069
  553      590.388         5846
  554      590.809         4443
  555       591.23         3556
  556      591.651         2980
  557      592.071         2606
  558      592.492         2346
  559      592.912         2152
  560      593.333         2009
  561      593.753         1909
  562      594.173         1825
  563      594.593         1756
  564      595.013         1699
  565      595.433         1645
  566      595.853         1612
  567      596.273         1585
  568      596.693         1548
  569      597.112         1518
  570      597.532         1496
  571      597.951         1466
  572       598.37         1431
  573      598.789         1391
  574      599.208         1369
  575      599.627         1343
  576      600.046         1314
  577      600.465         1298
  578      600.884         1274
  579      601.303         1255
  580      601.721         1245
  581      602.139         1222
  582      602.558         1198
  583      602.976         1177
  584      603.394         1149
  585      603.812         1129
  586       604.23         1122
  587      604.648         1114
  588      605.066         1114
  589      605.484         1116
  590      605.901         1112
  591      606.319         1094
  592      606.736         1078
  593      607.154         1073
  594      607.571         1068
  595      607.988         1065
  596      608.405         1067
  597      608.822         1068
  598      609.239         1066
  599      609.656         1068
  600      610.072         1070
  601      610.489         1073
  602      610.905         1079
  603      611.322         1079
  604      611.738         1074
  605      612.154         1066
  606       612.57         1060
  607      612.986         1048
  608      613.402         1038
  609      613.818         1037
  610      614.234         1048
  611       614.65         1053
  612      615.065         1048
  613      615.481         1042
  614      615.896         1027
  615      616.311         1017
  616      616.727         1013
  617      617.142         1004
  618      617.557         1000
  619      617.972          993
  620      618.386          991
  621      618.801          989
  622      619.216          988
  623       619.63          993
  624      620.045          990
  625      620.459          986
  626      620.873          989
  627      621.287          989
  628      621.702          987
  629      622.116          987
  630      622.529          986
  631      622.943          996
  632      623.357          993
  633      623.771          984
  634      624.184          982
  635      624.597          982
  636      625.011          979
  637      625.424          976
  638      625.837          979
  639       626.25          982
  640      626.663          984
  641      627.076          983
  642      627.489          975
  643      627.901          973
  644      628.314          974
  645      628.726          965
  646      629.139          964
  647      629.551          973
  648      629.963          981
  649      630.375          978
  650      630.787          975
  651      631.199          974
  652      631.611          974
  653      632.023          971
  654      632.434          974
  655      632.846          987
  656      633.257          994
  657      633.669          983
  658       634.08          976
  659      634.491          972
  660      634.902          973
  661      635.313          978
  662      635.724          978
  663      636.135          975
  664      636.545          979
  665      636.956          984
  666      637.366          983
  667      637.777          981
  668      638.187          978
  669      638.597          978
  670      639.007          988
  671      639.417          994
  672      639.827         1008
  673      640.237         1021
  674      640.647         1024
  675      641.056         1023
  676      641.466         1021
  677      641.875         1015
  678      642.285         1004
  679      642.694          994
  680      643.103          996
  681      643.512         1001
  682      643.921          998
  683       644.33          996
  684      644.739          994
  685      645.148          990
  686      645.556          991
  687      645.965          989
  688      646.373          981
  689      646.781          975
  690      647.189          974
  691      647.598          977
  692      648.006          984
  693      648.414          986
  694      648.821          986
  695      649.229          994
  696      649.637         1000
  697      650.044          994
  698      650.452          987
  699      650.859          985
  700      651.266          982
  701      651.673          991
  702       652.08          995
  703      652.487          996
  704      652.894          998
  705      653.301          988
  706      653.708          983
  707      654.114          993
  708      654.521          996
  709      654.927          994
  710      655.333          996
  711       655.74          999
  712      656.146         1003
  713      656.552         1009
  714      656.958         1019
  715      657.363         1026
  716      657.769         1026
  717      658.175         1027
  718       658.58         1025
  719      658.986         1025
  720      659.391         1032
  721      659.796         1041
  722      660.201         1053
  723      660.606         1063
  724      661.011         1073
  725      661.416         1093
  726      661.821         1107
  727      662.225         1115
  728       662.63         1133
  729      663.034         1157
  730      663.439         1181
  731      663.843         1214
  732      664.247         1247
  733      664.651         1280
  734      665.055         1341
  735      665.459         1423
  736      665.863         1558
  737      666.267         2282
  738       666.67         5792
  739      667.074        12180
  740      667.477        16383
  741       667.88        16383
  742      668.283        16383
  743      668.687        16383
  744       669.09        13406
  745      669.492         9014
  746      669.895         6052
  747      670.298         4214
  748      670.701         3083
  749      671.103         2369
  750      671.505         1934
  751      671.908         1665
  752       672.31         1491
  753      672.712         1385
  754      673.114         1314
  755      673.516         1262
  756      673.918         1220
  757       674.32         1186
  758      674.721         1163
  759      675.123         1145
  760      675.524         1133
  761      675.926         1123
  762      676.327         1112
  763      676.728         1104
  764      677.129         1090
  765       677.53         1077
  766      677.931         1078
  767      678.332         1068
  768      678.732         1057
  769      679.133         1044
  770      679.533         1035
  771      679.934         1033
  772      680.334         1031
  773      680.734         1032
  774      681.134         1028
  775      681.534         1022
  776      681.934         1016
  777      682.334         1007
  778      682.733         1008
  779      683.133         1013
  780      683.532         1007
  781      683.932         1004
  782      684.331         1004
  783       684.73         1005
  784      685.129         1007
  785      685.528         1006
  786      685.927         1004
  787      686.326         1004
  788      686.725         1008
  789      687.123         1004
  790      687.522         1007
  791       687.92         1017
  792      688.319         1020
  793      688.717         1018
  794      689.115         1017
  795      689.513         1018
  796      689.911         1024
  797      690.309         1034
  798      690.706         1040
  799      691.104         1040
  800      691.501         1040
  801      691.899         1034
  802      692.296         1032
  803      692.693         1034
  804       693.09         1040
  805      693.488         1044
  806      693.884         1044
  807      694.281         1053
  808      694.678         1065
  809      695.075         1074
  810      695.471         1061
  811      695.868         1066
  812      696.264         1073
  813       696.66         1085
  814      697.056         1100
  815      697.452         1110
  816      697.848         1128
  817      698.244         1145
  818       698.64         1158
  819      699.035         1180
  820      699.431         1204
  821      699.826         1232
  822      700.222         1266
  823      700.617         1297
  824      701.012         1321
  825      701.407         1355
  826      701.802         1394
  827      702.197         1443
  828      702.592         1500
  829      702.986         1567
  830      703.381         1670
  831      703.775         1801
  832       704.17         1983
  833      704.564         2465
  834      704.958         4873
  835      705.352        11178
  836      705.746        16383
  837       706.14        16383
  838      706.533        16383
  839      706.927        16383
  840      707.321        16383
  841      707.714        16383
  842      708.107        16255
  843      708.501        10754
  844      708.894         7264
  845      709.287         5085
  846       709.68         3732
  847      710.073         2899
  848      710.465         2379
  849      710.858         2039
  850      711.251         1825
  851      711.643         1682
  852      712.035         1576
  853      712.428         1497
  854       712.82         1437
  855      713.212         1387
  856      713.604         1353
  857      713.995         1321
  858      714.387         1288
  859      714.779         1261
  860       715.17         1233
  861      715.562         1208
  862      715.953         1189
  863      716.344         1174
  864      716.735         1163
  865      717.127         1146
  866      717.517         1130
  867      717.908         1117
  868      718.299         1108
  869       718.69         1103
  870       719.08         1095
  871      719.471         1082
  872      719.861         1070
  873      720.251         1067
  874      720.641         1063
  875      721.031         1058
  876      721.421         1054
  877      721.811         1062
  878      722.201         1061
  879       722.59         1054
  880       722.98         1060
  881      723.369         1057
  882      723.759         1055
  883      724.148         1060
  884      724.537         1059
  885      724.926         1065
  886      725.315         1085
  887      725.704         1101
  888      726.092         1120
  889      726.481         1251
  890       726.87         1706
  891      727.258         2607
  892      727.646         3731
  893      728.034         4617
  894      728.423         4960
  895      728.811         4624
  896      729.198         3751
  897      729.586         2814
  898      729.974         2128
  899      730.362         1706
  900      730.749         1448
  901      731.136         1288
  902      731.524         1184
  903      731.911         1114
  904      732.298         1076
  905      732.685         1053
  906      733.072         1029
  907      733.459         1012
  908      733.845         1007
  909      734.232         1006
  910      734.618         1003
  911      735.005          994
  912      735.391          984
  913      735.777          979
  914      736.163          982
  915      736.549          986
  916      736.935          986
  917      737.321          985
  918      737.706          968
  919      738.092          958
  920      738.477          962
  921      738.863          966
  922      739.248          969
  923      739.633          959
  924      740.018          956
  925      740.403          964
  926      740.788          960
  927      741.173          952
  928      741.557          953
  929      741.942          948
  930      742.326          949
  931      742.711          955
  932      743.095          956
  933      743.479          948
  934      743.863          944
  935      744.247          947
  936      744.631          942
  937      745.015          947
  938      745.398          950
  939      745.782          956
  940      746.165          960
  941      746.548          953
  942      746.932          946
  943      747.315          947
  944      747.698          955
  945      748.081          957
  946      748.463          952
  947      748.846          956
  948      749.229          952
  949      749.611          943
  950      749.993          942
  951      750.376          948
  952      750.758          949
  953       751.14          949
  954      751.522          948
  955      751.904          936
  956      752.285          927
  957      752.667          937
  958      753.049          946
  959       753.43          943
  960      753.811          940
  961      754.193          942
  962      754.574          949
  963      754.955          955
  964      755.336          952
  965      755.717          950
  966      756.097          944
  967      756.478          939
  968      756.858          937
  969      757.239          929
  970      757.619          931
  971      757.999          941
  972      758.379          954
  973      758.759          954
  974      759.139          957
  975      759.519          957
  976      759.899          950
  977      760.278          949
  978      760.658          956
  979      761.037          954
  980      761.417          950
  981      761.796          950
  982      762.175          949
  983      762.554          953
  984      762.933          954
  985      763.311          948
  986       763.69          945
  987      764.068          948
  988      764.447          948
  989      764.825          939
  990      765.203          938
  991      765.582          937
  992       765.96          937
  993      766.338          940
  994      766.715          937
  995      767.093          933
  996      767.471          933
  997      767.848          936
  998      768.226          935
  999      768.603          935
 1000       768.98          940
 1001      769.357          941
 1002      769.734          941
 1003      770.111          940
 1004      770.488          942
 1005      770.864          941
 1006      771.241          945
 1007      771.617          949
 1008      771.994          950
 1009       772.37          953
 1010      772.746          948
 1011      773.122          945
 1012      773.498          940
 1013      773.874          941
 1014       774.25          946
 1015      774.625          945
 1016      775.001          945
 1017      775.376          952
 1018      775.751          964
 1019      776.127          982
 1020      776.502         1020
 1021      776.877         1076
 1022      777.252         1128
 1023      777.626         1149
 1024      778.001         1134
 1025      778.375         1102
 1026       778.75         1066
 1027      779.124         1026
 1028      779.499          992
 1029      779.873          974
 1030      780.247          963
 1031      780.621          958
 1032      780.994          958
 1033      781.368          954
 1034      781.742          952
 1035      782.115          952
 1036      782.489          954
 1037      782.862          953
 1038      783.235          950
 1039      783.608          953
 1040      783.981          952
 1041      784.354          942
 1042      784.727          941
 1043        785.1          946
 1044      785.472          951
 1045      785.845          953
 1046      786.217          953
 1047      786.589          951
 1048      786.961          947
 1049      787.333          941
 1050      787.705          933
 1051      788.077          934
 1052      788.449          932
 1053       788.82          930
 1054      789.192          933
 1055      789.563          942
 1056      789.934          944
 1057      790.306          941
 1058      790.677          945
 1059      791.048          946
 1060      791.419          948
 1061      791.789          942
 1062       792.16          936
 1063       792.53          931
 1064      792.901          932
 1065      793.271          932
 1066      793.641          934
 1067      794.012          938
 1068      794.382          937
 1069      794.751          934
 1070      795.121          933
 1071      795.491          935
 1072      795.861          936
 1073       796.23          933
 1074      796.599          928
 1075      796.969          927
 1076      797.338          938
 1077      797.707          937
 1078      798.076          931
 1079      798.445          928
 1080      798.813          930
 1081      799.182          936
 1082       799.55          936
 1083      799.919          939
 1084      800.287          947
 1085      800.655          946
 1086      801.023          940
 1087      801.391          932
 1088      801.759          926
 1089      802.127          927
 1090      802.495          932
 1091      802.862          945
 1092       803.23          944
 1093      803.597          937
 1094      803.964          938
 1095      804.331          939
 1096      804.698          940
 1097      805.065          938
 1098      805.432          941
 1099      805.799          938
 1100      806.165          941
 1101      806.532          947
 1102      806.898          944
 1103      807.264          938
 1104      807.631          935
 1105      807.997          935
 1106      808.363          934
 1107      808.728          934
 1108      809.094          935
 1109       809.46          937
 1110      809.825          939
 1111      810.191          937
 1112      810.556          940
 1113      810.921          943
 1114      811.286          942
 1115      811.651          935
 1116      812.016          929
 1117      812.381          928
 1118      812.745          934
 1119       813.11          944
 1120      813.474          946
 1121      813.839          936
 1122      814.203          929
 1123      814.567          927
 1124      814.931          928
 1125      815.295          935
 1126      815.659          937
 1127      816.022          934
 1128      816.386          936
 1129      816.749          936
 1130      817.113          928
 1131      817.476          924
 1132      817.839          930
 1133      818.202          935
 1134      818.565          932
 1135      818.928          929
 1136      819.291          928
 1137      819.653          938
 1138      820.016          941
 1139      820.378          939
 1140       820.74          937
 1141      821.102          932
 1142      821.464          932
 1143      821.826          936
 1144      822.188          942
 1145       822.55          943
 1146      822.912          940
 1147      823.273          943
 1148      823.634          938
 1149      823.996          935
 1150      824.357          934
 1151      824.718          933
 1152      825.079          934
 1153       825.44          938
 1154      825.801          943
 1155      826.161          949
 1156      826.522          950
 1157      826.882          945
 1158      827.242          944
 1159      827.603          942
 1160      827.963          939
 1161      828.323          935
 1162      828.682          936
 1163      829.042          937
 1164      829.402          935
 1165      829.761          936
 1166      830.121          939
 1167       830.48          937
 1168      830.839          936
 1169      831.198          934
 1170      831.557          934
 1171      831.916          936
 1172      832.275          931
 1173      832.634          929
 1174      832.992          929
 1175      833.351          926
 1176      833.709          928
 1177      834.067          929
 1178      834.425          936
 1179      834.783          938
 1180      835.141          939
 1181      835.499          940
 1182      835.857          941
 1183      836.214          937
 1184      836.572          933
 1185      836.929          935
 1186      837.286          931
 1187      837.644          934
 1188      838.001          944
 1189      838.357          946
 1190      838.714          943
 1191      839.071          941
 1192      839.428          944
 1193      839.784          943
 1194       840.14          939
 1195      840.497          938
 1196      840.853          945
 1197      841.209          950
 1198      841.565          940
 1199       841.92          933
 1200      842.276          933
 1201      842.632          932
 1202      842.987          939
 1203      843.343          942
 1204      843.698          941
 1205      844.053          947
 1206      844.408          952
 1207      844.763          953
 1208      845.118          956
 1209      845.472          963
 1210      845.827          966
 1211      846.181          963
 1212      846.536          952
 1213       846.89          943
 1214      847.244          944
 1215      847.598          943
 1216      847.952          936
 1217      848.306          928
 1218       848.66          930
 1219      849.013          931
 1220      849.367          932
 1221       849.72          935
 1222      850.073          932
 1223      850.427          929
 1224       850.78          932
 1225      851.133          932
 1226      851.485          928
 1227      851.838          927
 1228      852.191          931
 1229      852.543          933
 1230      852.896          936
 1231      853.248          944
 1232        853.6          943
 1233      853.952          938
 1234      854.304          937
 1235      854.656          936
 1236      855.007          940
 1237      855.359          944
 1238       855.71          944
 1239      856.062          942
 1240      856.413          938
 1241      856.764          938
 1242      857.115          936
 1243      857.466          926
 1244      857.817          925
 1245      858.168          932
 1246      858.518          944
 1247      858.869          952
 1248      859.219          952
 1249      859.569          939
 1250       859.92          929
 1251       860.27          930
 1252      860.619          940
 1253      860.969          937
 1254      861.319          929
 1255      861.669          933
 1256      862.018          945
 1257      862.367          942
 1258      862.717          929
 1259      863.066          923
 1260      863.415          929
 1261      863.764          936
 1262      864.112          933
 1263      864.461          933
 1264       864.81          936
 1265      865.158          937
 1266      865.507          936
 1267      865.855          936
 1268      866.203          939
 1269      866.551          944
 1270      866.899          942
 1271      867.247          929
 1272      867.594          929
 1273      867.942          938
 1274      868.289          940
 1275      868.637          936
 1276      868.984          928
 1277      869.331          927
 1278      869.678          931
 1279      870.025          931
 1280      870.372          926
 1281      870.718          926
 1282      871.065          927
 1283      871.411          924
 1284      871.758          926
 1285      872.104          928
 1286       872.45          932
 1287      872.796          930
 1288      873.142          926
 1289      873.488          936
 1290      873.833          940
 1291      874.179          935
 1292      874.524          929
 1293      874.869          929
 1294      875.215          927
 1295       875.56          928
 1296      875.905          933
 1297       876.25          936
 1298      876.594          935
 1299      876.939          926
 1300      877.283          926
 1301      877.628          932
 1302      877.972          939
 1303      878.316          945
 1304       878.66          948
 1305      879.004          945
 1306      879.348          941
 1307      879.692          940
 1308      880.035          940
 1309      880.379          938
 1310      880.722          937
 1311      881.066          933
 1312      881.409          933
 1313      881.752          932
 1314      882.095          930
 1315      882.438          928
 1316       882.78          930
 1317      883.123          929
 1318      883.465          934
 1319      883.808          936
 1320       884.15          939
 1321      884.492          936
 1322      884.834          931
 1323      885.176          926
 1324      885.518          928
 1325      885.859          928
 1326      886.201          927
 1327      886.542          926
 1328      886.884          921
 1329      887.225          920
 1330      887.566          919
 1331      887.907          919
 1332      888.248          918
 1333      888.589          924
 1334      888.929          931
 1335       889.27          927
 1336       889.61          924
 1337      889.951          927
 1338      890.291          925
 1339      890.631          921
 1340      890.971          926
 1341      891.311          927
 1342       891.65          931
 1343       891.99          936
 1344      892.329          932
 1345      892.669          928
 1346      893.008          927
 1347      893.347          925
 1348      893.686          922
 1349      894.025          922
 1350      894.364          925
 1351      894.703          928
 1352      895.041          931
 1353       895.38          933
 1354      895.718          936
 1355      896.056          938
 1356      896.395          934
 1357      896.733          930
 1358      897.071          932
 1359      897.408          935
 1360      897.746          932
 1361      898.084          934
 1362      898.421          943
 1363      898.758          943
 1364      899.095          940
 1365      899.433          938
 1366       899.77          940
 1367      900.106          943
 1368      900.443          935
 1369       900.78          938
 1370      901.116          945
 1371      901.453          941
 1372      901.789          935
 1373      902.125          932
 1374      902.461          933
 1375      902.797          936
 1376      903.133          939
 1377      903.469          933
 1378      903.804          928
 1379       904.14          928
 1380      904.475          931
 1381       904.81          933
 1382      905.146          937
 1383      905.481          945
 1384      905.815          948
 1385       906.15          951
 1386      906.485          946
 1387      906.819          937
 1388      907.154          931
 1389      907.488          934
 1390      907.822          934
 1391      908.156          932
 1392       908.49          932
 1393      908.824          930
 1394      909.158          932
 1395      909.492          938
 1396      909.825          944
 1397      910.159          935
 1398      910.492          925
 1399      910.825          919
 1400      911.158          921
 1401      911.491          923
 1402      911.824          932
 1403      912.157          937
 1404      912.489          934
 1405      912.822          927
 1406      913.154          924
 1407      913.486          935
 1408      913.818          945
 1409       914.15          946
 1410      914.482          947
 1411      914.814          945
 1412      915.146          943
 1413      915.477          949
 1414      915.809          951
 1415       916.14          946
 1416      916.471          945
 1417      916.802          947
 1418      917.133          948
 1419      917.464          947
 1420      917.795          941
 1421      918.125          937
 1422      918.456          936
 1423      918.786          938
 1424      919.116          939
 1425      919.446          934
 1426      919.776          939
 1427      920.106          943
 1428      920.436          938
 1429      920.766          932
 1430      921.095          936
 1431      921.425          938
 1432      921.754          933
 1433      922.083          932
 1434      922.412          939
 1435      922.741          947
 1436       923.07          942
 1437      923.399          935
 1438      923.727          935
 1439      924.056          944
 1440      924.384          946
 1441      924.713          939
 1442      925.041          939
 1443      925.369          947
 1444      925.697          950
 1445      926.024          950
 1446      926.352          939
 1447       926.68          933
 1448      927.007          936
 1449      927.334          940
 1450      927.662          935
 1451      927.989          930
 1452      928.316          933
 1453      928.643          941
 1454      928.969          947
 1455      929.296          939
 1456      929.622          943
 1457      929.949          948
 1458      930.275          944
 1459      930.601          940
 1460      930.927          941
 1461      931.253          941
 1462      931.579          944
 1463      931.905          940
 1464       932.23          937
 1465      932.556          937
 1466      932.881          930
 1467      933.206          933
 1468      933.531          936
 1469      933.856          933
 1470      934.181          939
 1471      934.506          937
 1472       934.83          929
 1473      935.155          929
 1474      935.479          935
 1475      935.803          933
 1476      936.128          933
 1477      936.452          941
 1478      936.775          943
 1479      937.099          938
 1480      937.423          933
 1481      937.746          934
 1482       938.07          939
 1483      938.393          935
 1484      938.716          928
 1485      939.039          933
 1486      939.362          936
 1487      939.685          935
 1488      940.008          934
 1489      940.331          927
 1490      940.653          919
 1491      940.975          925
 1492      941.298          923
 1493       941.62          916
 1494      941.942          919
 1495      942.264          925
 1496      942.585          930
 1497      942.907          930
 1498      943.229          933
 1499       943.55          939
 1500      943.871          945
 1501      944.192          948
 1502      944.513          945
 1503      944.834          940
 1504      945.155          940
 1505      945.476          935
 1506      945.796          928
 1507      946.117          930
 1508      946.437          925
 1509      946.757          925
 1510      947.078          929
 1511      947.398          931
 1512      947.717          935
 1513      948.037          933
 1514      948.357          925
 1515      948.676          928
 1516      948.996          932
 1517      949.315          926
 1518      949.634          924
 1519      949.953          931
 1520      950.272          937
 1521      950.591          938
 1522      950.909          936
 1523      951.228          932
 1524      951.546          924
 1525      951.865          920
 1526      952.183          920
 1527      952.501          916
 1528      952.819          922
 1529      953.137          931
 1530      953.454          931
 1531      953.772          927
 1532      954.089          924
 1533      954.407          928
 1534      954.724          928
 1535      955.041          930
 1536      955.358          928
 1537      955.675          930
 1538      955.992          935
 1539      956.308          929
 1540      956.625          922
 1541      956.941          926
 1542      957.257          933
 1543      957.574          934
 1544       957.89          936
 1545      958.206          939
 1546      958.521          936
 1547      958.837          937
 1548      959.152          940
 1549      959.468          934
 1550      959.783          933
 1551      960.098          941
 1552      960.413          934
 1553      960.728          929
 1554      961.043          931
 1555      961.358          932
 1556      961.672          934
 1557      961.987          929
 1558      962.301          928
 1559      962.615          932
 1560       962.93          931
 1561      963.244          930
 1562      963.557          929
 1563      963.871          926
 1564      964.185          925
 1565      964.498          923
 1566      964.812          928
 1567      965.125          934
 1568      965.438          935
 1569      965.751          935
 1570      966.064          935
 1571      966.377          935
 1572      966.689          929
 1573      967.002          932
 1574      967.314          935
 1575      967.626          933
 1576      967.939          930
 1577      968.251          929
 1578      968.563          928
 1579      968.874          928
 1580      969.186          931
 1581      969.498          936
 1582      969.809          934
 1583       970.12          935
 1584      970.431          942
 1585      970.743          947
 1586      971.053          941
 1587      971.364          941
 1588      971.675          939
 1589      971.986          937
 1590      972.296          936
 1591      972.606          930
 1592      972.917          931
 1593      973.227          939
 1594      973.537          939
 1595      973.847          935
 1596      974.156          933
 1597      974.466          933
 1598      974.775          929
 1599      975.085          928
 1600      975.394          928
 1601      975.703          929
 1602      976.012          929
 1603      976.321          924
 1604       976.63          919
 1605      976.938          922
 1606      977.247          928
 1607      977.555          929
 1608      977.863          923
 1609      978.172          922
 1610       978.48          929
 1611      978.787          935
 1612      979.095          935
 1613      979.403          932
 1614       979.71          932
 1615      980.018          935
 1616      980.325          930
 1617      980.632          924
 1618      980.939          923
 1619      981.246          924
 1620      981.553          921
 1621       981.86          920
 1622      982.166          914
 1623      982.473          911
 1624      982.779          919
 1625      983.085          934
 1626      983.391          943
 1627      983.697          944
 1628      984.003          941
 1629      984.309          946
 1630      984.614          950
 1631       984.92          943
 1632      985.225          935
 1633       985.53          943
 1634      985.835          953
 1635       986.14          959
 1636      986.445          960
 1637       986.75          954
 1638      987.054          957
 1639      987.359          955
 1640      987.663          952
 1641      987.967          959
 1642      988.271          962
 1643      988.575          964
 1644      988.879          965
 1645      989.183          961
 1646      989.487          955
 1647       989.79          953
 1648      990.093          952
 1649      990.397          948
 1650        990.7          944
 1651      991.003          937
 1652      991.306          936
 1653      991.608          934
 1654      991.911          938
 1655      992.213          939
 1656      992.516          942
 1657      992.818          946
 1658       993.12          937
 1659      993.422          934
 1660      993.724          937
 1661      994.026          937
 1662      994.327          944
 1663      994.629          947
 1664       994.93          946
 1665      995.232          943
 1666      995.533          938
 1667      995.834          941
 1668      996.135          934
 1669      996.435          926
 1670      996.736          929
 1671      997.036          923
 1672      997.337          920
 1673      997.637          921
 1674      997.937          924
 1675      998.237          931
 1676      998.537          935
 1677      998.837          934
 1678      999.137          939
 1679      999.436          942
 1680      999.735          937
 1681      1000.03          945
 1682      1000.33          950
 1683      1000.63          939
 1684      1000.93          936
 1685      1001.23          940
 1686      1001.53          942
 1687      1001.83          940
 1688      1002.13          933
 1689      1002.42          928
 1690      1002.72          931
 1691      1003.02          933
 1692      1003.32          941
 1693      1003.62          952
 1694      1003.91          962
 1695      1004.21          973
 1696      1004.51          992
 1697      1004.81         1011
 1698       1005.1         1028
 1699       1005.4         1040
 1700       1005.7         1059
 1701      1005.99         1081
 1702      1006.29         1099
 1703      1006.59         1120
 1704      1006.88         1140
 1705      1007.18         1156
 1706      1007.48         1164
 1707      1007.77         1147
 1708      1008.07         1122
 1709      1008.36         1093
 1710      1008.66         1060
 1711      1008.95         1029
 1712      1009.25         1005
 1713      1009.55          989
 1714      1009.84          972
 1715      1010.14          960
 1716      1010.43          953
 1717      1010.73          947
 1718      1011.02          947
 1719      1011.31          944
 1720      1011.61          937
 1721       1011.9          932
 1722       1012.2          933
 1723      1012.49          938
 1724      1012.79          939
 1725      1013.08          936
 1726      1013.37          934
 1727      1013.67          936
 1728      1013.96          936
 1729      1014.25          934
 1730      1014.55          937
 1731      1014.84          934
 1732      1015.13          925
 1733      1015.42          920
 1734      1015.72          924
 1735      1016.01          931
 1736       1016.3          929
 1737      1016.59          926
 1738      1016.89          927
 1739      1017.18          928
 1740      1017.47          932
 1741      1017.76          936
 1742      1018.05          933
 1743      1018.35          929
 1744      1018.64          925
 1745      1018.93          924
 1746      1019.22          930
 1747      1019.51          942
 1748       1019.8          941
 1749      1020.09          939
 1750      1020.38          933
 1751      1020.67          934
 1752      1020.96          936
 1753      1021.25          934
 1754      1021.54          931
 1755      1021.83          931
 1756      1022.12          932
 1757      1022.41          928
 1758       1022.7          928
 1759      1022.99          928
 1760      1023.28          930
 1761      1023.57          935
 1762      1023.86          930
 1763      1024.15          925
 1764      1024.44          921
 1765      1024.73          922
 1766      1025.02          925
 1767       1025.3          922
 1768      1025.59          918
 1769      1025.88          914
 1770      1026.17          916
 1771      1026.46          919
 1772      1026.74          922
 1773      1027.03          924
 1774      1027.32          921
 1775      1027.61          925
 1776      1027.89          934
 1777      1028.18          937
 1778      1028.47          930
 1779      1028.76          921
 1780      1029.04          923
 1781      1029.33          923
 1782      1029.62          923
 1783       1029.9          920
 1784      1030.19          915
 1785      1030.47          910
 1786      1030.76          921
 1787      1031.05          936
 1788      1031.33          942
 1789      1031.62          938
 1790       1031.9          935
 1791      1032.19          936
 1792      1032.47          932
 1793      1032.76          933
 1794      1033.04          938
 1795      1033.33          933
 1796      1033.61          932
 1797       1033.9          933
 1798      1034.18          926
 1799      1034.47          922
 1800      1034.75          921
 1801      1035.04          925
 1802      1035.32          928
 1803       1035.6          921
 1804      1035.89          921
 1805      1036.17          924
 1806      1036.45          928
 1807      1036.74          929
 1808      1037.02          927
 1809       1037.3          925
 1810      1037.59          930
 1811      1037.87          931
 1812      1038.15          924
 1813      1038.44          920
 1814      1038.72          919
 1815         1039          928
 1816      1039.28          937
 1817      1039.56          946
 1818      1039.85          954
 1819      1040.13          953
 1820      1040.41          945
 1821      1040.69          938
 1822      1040.97          936
 1823      1041.25          939
 1824      1041.54          939
 1825      1041.82          936
 1826       1042.1          932
 1827      1042.38          934
 1828      1042.66          934
 1829      1042.94          928
 1830      1043.22          928
 1831       1043.5          929
 1832      1043.78          927
 1833      1044.06          923
 1834      1044.34          925
 1835      1044.62          928
 1836       1044.9          924
 1837      1045.18          920
 1838      1045.46          920
 1839      1045.74          927
 1840      1046.02          931
 1841       1046.3          935
 1842      1046.58          939
 1843      1046.85          938
 1844      1047.13          936
 1845      1047.41          933
 1846      1047.69          934
 1847      1047.97          933
 1848      1048.25          933
 1849      1048.52          930
 1850       1048.8          930
 1851      1049.08          928
 1852      1049.36          924
 1853      1049.63          925
 1854      1049.91          928
 1855      1050.19          931
 1856      1050.47          930
 1857      1050.74          928
 1858      1051.02          930
 1859       1051.3          934
 1860      1051.57          931
 1861      1051.85          932
 1862      1052.13          931
 1863       1052.4          928
 1864      1052.68          924
 1865      1052.95          918
 1866      1053.23          918
 1867      1053.51          918
 1868      1053.78          922
 1869      1054.06          928
 1870      1054.33          934
 1871      1054.61          938
 1872      1054.88          941
 1873      1055.16          938
 1874      1055.43          933
 1875      1055.71          931
 1876      1055.98          932
 1877      1056.25          938
 1878      1056.53          932
 1879       1056.8          920
 1880      1057.08          924
 1881      1057.35          929
 1882      1057.62          930
 1883       1057.9          934
 1884      1058.17          939
 1885      1058.45          936
 1886      1058.72          932
 1887      1058.99          935
 1888      1059.26          935
 1889      1059.54          936
 1890      1059.81          932
 1891      1060.08          932
 1892      1060.35          942
 1893      1060.63          938
 1894       1060.9          934
 1895      1061.17          930
 1896      1061.44          926
 1897      1061.71          924
 1898      1061.99          931
 1899      1062.26          938
 1900      1062.53          938
 1901       1062.8          938
 1902      1063.07          934
 1903      1063.34          928
 1904      1063.61          931
 1905      1063.88          937
 1906      1064.15          933
 1907      1064.42          925
 1908       1064.7          924
 1909      1064.97          924
 1910      1065.24          921
 1911      1065.51          921
 1912      1065.78          923
 1913      1066.04          925
 1914      1066.31          931
 1915      1066.58          934
 1916      1066.85          930
 1917      1067.12          928
 1918      1067.39          924
 1919      1067.66          926
 1920      1067.93          934
 1921       1068.2          933
 1922      1068.47          928
 1923      1068.73          928
 1924         1069          935
 1925      1069.27          937
 1926      1069.54          943
 1927      1069.81          944
 1928      1070.07          935
 1929      1070.34          929
 1930      1070.61          928
 1931      1070.88          928
 1932      1071.14          925
 1933      1071.41          919
 1934      1071.68          916
 1935      1071.94          920
 1936      1072.21          926
 1937      1072.48          926
 1938      1072.74          927
 1939      1073.01          933
 1940      1073.28          931
 1941      1073.54          933
 1942      1073.81          942
 1943      1074.07          943
 1944      1074.34          937
 1945       1074.6          933
 1946      1074.87          931
 1947      1075.13          927
 1948       1075.4          930
 1949      1075.66          934
 1950      1075.93          932
 1951      1076.19          923
 1952      1076.46          922
 1953      1076.72          929
 1954      1076.99          935
 1955      1077.25          938
 1956      1077.52          936
 1957      1077.78          930
 1958      1078.04          926
 1959      1078.31          929
 1960      1078.57          938
 1961      1078.83          942
 1962       1079.1          934
 1963      1079.36          926
 1964      1079.62          930
 1965      1079.89          927
 1966      1080.15          926
 1967      1080.41          930
 1968      1080.67          931
 1969      1080.94          929
 1970       1081.2          932
 1971      1081.46          937
 1972      1081.72          936
 1973      1081.98          935
 1974      1082.24          933
 1975      1082.51          928
 1976      1082.77          926
 1977      1083.03          929
 1978      1083.29          929
 1979      1083.55          925
 1980      1083.81          925
 1981      1084.07          921
 1982      1084.33          915
 1983      1084.59          921
 1984      1084.85          926
 1985      1085.11          922
 1986      1085.37          920
 1987      1085.63          924
 1988      1085.89          926
 1989      1086.15          921
 1990      1086.41          913
 1991      1086.67          913
 1992      1086.93          922
 1993      1087.19          928
 1994      1087.45          933
 1995      1087.71          931
 1996      1087.97          923
 1997      1088.23          914
 1998      1088.48          911
 1999      1088.74          914
 2000         1089          915
 2001      1089.26          919
 2002      1089.52          930
 2003      1089.77          934
 2004      1090.03          930
 2005      1090.29          925
 2006      1090.55          926
 2007       1090.8          925
 2008      1091.06          923
 2009      1091.32          924
 2010      1091.57          932
 2011      1091.83          937
 2012      1092.09          938
 2013      1092.34          938
 2014       1092.6          929
 2015      1092.86          924
 2016      1093.11          923
 2017      1093.37          925
 2018      1093.62          936
 2019      1093.88          940
 2020      1094.13          941
 2021      1094.39          942
 2022      1094.65          940
 2023       1094.9          937
 2024      1095.16          932
 2025      1095.41          921
 2026      1095.66          914
 2027      1095.92          917
 2028      1096.17          934
 2029      1096.43          932
 2030      1096.68          924
 2031      1096.94          927
 2032      1097.19          936
 2033      1097.44          943
 2034       1097.7          943
 2035      1097.95          938
 2036       1098.2          931
 2037      1098.46          928
 2038      1098.71          925
 2039      1098.96          927
 2040      1099.22          935
 2041      1099.47          934
 2042      1099.72          934
 2043      1099.97          937
 2044      1100.23          936
 2045      1100.48          930
 2046      1100.73          932
 2047      1100.98          950
