scansci Spectrometer Data File
--- Measurement Setting ---
Type: Sample Spectrum
Date: Wed May 26 15:57:46 2021
User: (Reserved by scansci)
Serial: (Reserved by scansci)
Channel: No. 11
Integration Time: 32
Average: 1
Boxcar: 0
Electrical Dark: No-corrected
Time Normalize: (Reserved by scansci)
Dual-beam: (Reserved by scansci)
Reference Ch: (Reserved by scansci)
--- Measurement Data ---
Pixel   Wavelength   Intensity
    0        344.4          880
    1      344.867          877
    2      345.334          882
    3      345.801          885
    4      346.268          886
    5      346.735          886
    6      347.202          881
    7      347.669          884
    8      348.135          883
    9      348.602          879
   10      349.068          879
   11      349.535          878
   12      350.001          880
   13      350.467          876
   14      350.933          874
   15      351.399          882
   16      351.866          880
   17      352.331          869
   18      352.797          873
   19      353.263          879
   20      353.729          882
   21      354.194          880
   22       354.66          881
   23      355.126          880
   24      355.591          877
   25      356.056          879
   26      356.522          883
   27      356.987          884
   28      357.452          880
   29      357.917          883
   30      358.382          882
   31      358.847          875
   32      359.312          882
   33      359.776          889
   34      360.241          879
   35      360.706          874
   36       361.17          878
   37      361.634          873
   38      362.099          867
   39      362.563          866
   40      363.027          870
   41      363.491          874
   42      363.955          873
   43      364.419          873
   44      364.883          873
   45      365.347          873
   46      365.811          873
   47      366.274          872
   48      366.738          874
   49      367.201          877
   50      367.665          877
   51      368.128          878
   52      368.592          880
   53      369.055          881
   54      369.518          881
   55      369.981          883
   56      370.444          878
   57      370.907          875
   58       371.37          881
   59      371.832          878
   60      372.295          876
   61      372.757          878
   62       373.22          882
   63      373.682          883
   64      374.145          878
   65      374.607          880
   66      375.069          882
   67      375.531          876
   68      375.993          876
   69      376.455          873
   70      376.917          879
   71      377.379          885
   72      377.841          879
   73      378.302          874
   74      378.764          877
   75      379.225          886
   76      379.687          884
   77      380.148          877
   78      380.609          876
   79      381.071          878
   80      381.532          879
   81      381.993          874
   82      382.454          867
   83      382.915          865
   84      383.375          861
   85      383.836          863
   86      384.297          870
   87      384.757          871
   88      385.218          870
   89      385.678          872
   90      386.138          871
   91      386.599          872
   92      387.059          871
   93      387.519          870
   94      387.979          873
   95      388.439          880
   96      388.899          884
   97      389.358          879
   98      389.818          876
   99      390.278          872
  100      390.737          874
  101      391.197          874
  102      391.656          873
  103      392.115          881
  104      392.575          885
  105      393.034          885
  106      393.493          887
  107      393.952          883
  108      394.411          880
  109       394.87          879
  110      395.328          874
  111      395.787          872
  112      396.246          879
  113      396.704          881
  114      397.163          872
  115      397.621          866
  116      398.079          862
  117      398.537          863
  118      398.995          871
  119      399.454          882
  120      399.911          895
  121      400.369          899
  122      400.827          890
  123      401.285          883
  124      401.743          879
  125        402.2          878
  126      402.658          874
  127      403.115          874
  128      403.572          879
  129       404.03          879
  130      404.487          877
  131      404.944          874
  132      405.401          869
  133      405.858          872
  134      406.315          880
  135      406.771          884
  136      407.228          878
  137      407.685          877
  138      408.141          880
  139      408.598          884
  140      409.054          887
  141       409.51          887
  142      409.967          886
  143      410.423          881
  144      410.879          876
  145      411.335          878
  146      411.791          881
  147      412.246          890
  148      412.702          894
  149      413.158          895
  150      413.613          896
  151      414.069          890
  152      414.524          880
  153       414.98          873
  154      415.435          878
  155       415.89          887
  156      416.345          886
  157        416.8          881
  158      417.255          879
  159       417.71          874
  160      418.165          868
  161      418.619          868
  162      419.074          872
  163      419.529          879
  164      419.983          882
  165      420.437          880
  166      420.892          875
  167      421.346          875
  168        421.8          873
  169      422.254          870
  170      422.708          872
  171      423.162          876
  172      423.616          879
  173       424.07          884
  174      424.523          880
  175      424.977          876
  176       425.43          878
  177      425.884          872
  178      426.337          865
  179       426.79          867
  180      427.243          874
  181      427.697          877
  182       428.15          871
  183      428.602          868
  184      429.055          871
  185      429.508          875
  186      429.961          880
  187      430.413          882
  188      430.866          881
  189      431.318          883
  190      431.771          884
  191      432.223          882
  192      432.675          880
  193      433.127          878
  194      433.579          879
  195      434.031          882
  196      434.483          879
  197      434.935          875
  198      435.387          878
  199      435.838          885
  200       436.29          881
  201      436.741          876
  202      437.193          876
  203      437.644          877
  204      438.095          877
  205      438.546          876
  206      438.997          877
  207      439.448          876
  208      439.899          883
  209       440.35          887
  210      440.801          885
  211      441.251          876
  212      441.702          871
  213      442.152          872
  214      442.603          878
  215      443.053          884
  216      443.503          882
  217      443.954          885
  218      444.404          887
  219      444.854          885
  220      445.304          890
  221      445.753          893
  222      446.203          887
  223      446.653          882
  224      447.102          885
  225      447.552          884
  226      448.001          878
  227      448.451          875
  228        448.9          873
  229      449.349          870
  230      449.798          865
  231      450.247          865
  232      450.696          877
  233      451.145          886
  234      451.594          886
  235      452.042          884
  236      452.491          885
  237      452.939          885
  238      453.388          878
  239      453.836          869
  240      454.285          873
  241      454.733          879
  242      455.181          877
  243      455.629          884
  244      456.077          889
  245      456.525          886
  246      456.972          877
  247       457.42          872
  248      457.868          877
  249      458.315          886
  250      458.763          886
  251       459.21          887
  252      459.657          892
  253      460.104          889
  254      460.552          876
  255      460.999          870
  256      461.446          873
  257      461.892          870
  258      462.339          874
  259      462.786          878
  260      463.233          875
  261      463.679          870
  262      464.125          874
  263      464.572          873
  264      465.018          873
  265      465.464          876
  266       465.91          877
  267      466.356          879
  268      466.802          881
  269      467.248          882
  270      467.694          885
  271       468.14          885
  272      468.585          881
  273      469.031          877
  274      469.476          875
  275      469.922          869
  276      470.367          872
  277      470.812          877
  278      471.257          875
  279      471.702          876
  280      472.147          882
  281      472.592          881
  282      473.037          874
  283      473.482          878
  284      473.926          874
  285      474.371          867
  286      474.815          872
  287      475.259          877
  288      475.704          884
  289      476.148          886
  290      476.592          883
  291      477.036          879
  292       477.48          873
  293      477.924          874
  294      478.368          878
  295      478.811          882
  296      479.255          889
  297      479.698          885
  298      480.142          882
  299      480.585          876
  300      481.028          881
  301      481.472          883
  302      481.915          877
  303      482.358          870
  304      482.801          871
  305      483.244          873
  306      483.686          871
  307      484.129          870
  308      484.572          867
  309      485.014          873
  310      485.456          880
  311      485.899          878
  312      486.341          874
  313      486.783          878
  314      487.225          885
  315      487.667          886
  316      488.109          880
  317      488.551          881
  318      488.993          883
  319      489.434          885
  320      489.876          885
  321      490.318          891
  322      490.759          890
  323        491.2          884
  324      491.641          881
  325      492.083          874
  326      492.524          873
  327      492.965          875
  328      493.406          882
  329      493.846          889
  330      494.287          889
  331      494.728          884
  332      495.168          883
  333      495.609          882
  334      496.049          881
  335      496.489          881
  336       496.93          882
  337       497.37          879
  338       497.81          880
  339       498.25          882
  340       498.69          884
  341      499.129          883
  342      499.569          879
  343      500.009          882
  344      500.448          893
  345      500.888          891
  346      501.327          884
  347      501.766          876
  348      502.206          869
  349      502.645          867
  350      503.084          865
  351      503.523          866
  352      503.961          873
  353        504.4          874
  354      504.839          876
  355      505.277          881
  356      505.716          887
  357      506.154          894
  358      506.593          887
  359      507.031          880
  360      507.469          880
  361      507.907          878
  362      508.345          875
  363      508.783          876
  364      509.221          875
  365      509.659          873
  366      510.096          874
  367      510.534          871
  368      510.971          872
  369      511.409          876
  370      511.846          876
  371      512.283          870
  372       512.72          868
  373      513.157          872
  374      513.594          873
  375      514.031          874
  376      514.468          877
  377      514.905          879
  378      515.341          885
  379      515.778          884
  380      516.214          878
  381       516.65          876
  382      517.087          878
  383      517.523          875
  384      517.959          873
  385      518.395          876
  386      518.831          880
  387      519.267          879
  388      519.702          883
  389      520.138          883
  390      520.574          880
  391      521.009          878
  392      521.444          879
  393       521.88          874
  394      522.315          872
  395       522.75          872
  396      523.185          873
  397       523.62          873
  398      524.055          877
  399       524.49          881
  400      524.924          883
  401      525.359          879
  402      525.794          874
  403      526.228          872
  404      526.662          873
  405      527.097          877
  406      527.531          879
  407      527.965          873
  408      528.399          872
  409      528.833          881
  410      529.267          884
  411        529.7          882
  412      530.134          877
  413      530.568          874
  414      531.001          876
  415      531.434          876
  416      531.868          877
  417      532.301          877
  418      532.734          873
  419      533.167          879
  420        533.6          885
  421      534.033          883
  422      534.466          881
  423      534.898          879
  424      535.331          880
  425      535.763          885
  426      536.196          886
  427      536.628          886
  428       537.06          888
  429      537.493          892
  430      537.925          891
  431      538.357          879
  432      538.788          881
  433       539.22          884
  434      539.652          878
  435      540.084          880
  436      540.515          883
  437      540.947          880
  438      541.378          882
  439      541.809          888
  440       542.24          892
  441      542.672          891
  442      543.103          889
  443      543.533          885
  444      543.964          881
  445      544.395          882
  446      544.826          885
  447      545.256          884
  448      545.687          884
  449      546.117          888
  450      546.547          889
  451      546.978          889
  452      547.408          890
  453      547.838          888
  454      548.268          885
  455      548.698          888
  456      549.127          893
  457      549.557          890
  458      549.987          890
  459      550.416          889
  460      550.846          890
  461      551.275          886
  462      551.704          886
  463      552.133          883
  464      552.562          878
  465      552.991          879
  466       553.42          877
  467      553.849          884
  468      554.278          888
  469      554.706          885
  470      555.135          885
  471      555.563          882
  472      555.991          886
  473       556.42          890
  474      556.848          890
  475      557.276          890
  476      557.704          886
  477      558.132          881
  478       558.56          884
  479      558.987          891
  480      559.415          888
  481      559.843          878
  482       560.27          878
  483      560.697          885
  484      561.125          887
  485      561.552          883
  486      561.979          880
  487      562.406          878
  488      562.833          881
  489       563.26          879
  490      563.686          880
  491      564.113          883
  492       564.54          892
  493      564.966          898
  494      565.392          893
  495      565.819          892
  496      566.245          887
  497      566.671          887
  498      567.097          892
  499      567.523          891
  500      567.949          894
  501      568.374          897
  502        568.8          893
  503      569.226          884
  504      569.651          878
  505      570.077          880
  506      570.502          880
  507      570.927          881
  508      571.352          886
  509      571.777          888
  510      572.202          888
  511      572.627          884
  512      573.052          882
  513      573.476          880
  514      573.901          878
  515      574.325          877
  516       574.75          882
  517      575.174          886
  518      575.598          887
  519      576.022          888
  520      576.446          885
  521       576.87          881
  522      577.294          881
  523      577.718          884
  524      578.142          890
  525      578.565          889
  526      578.989          883
  527      579.412          875
  528      579.835          874
  529      580.259          881
  530      580.682          878
  531      581.105          879
  532      581.528          882
  533      581.951          883
  534      582.373          890
  535      582.796          889
  536      583.219          879
  537      583.641          881
  538      584.063          888
  539      584.486          888
  540      584.908          887
  541       585.33          890
  542      585.752          887
  543      586.174          888
  544      586.596          888
  545      587.018          881
  546      587.439          880
  547      587.861          879
  548      588.282          880
  549      588.704          882
  550      589.125          889
  551      589.546          892
  552      589.967          884
  553      590.388          877
  554      590.809          878
  555       591.23          885
  556      591.651          888
  557      592.071          886
  558      592.492          885
  559      592.912          887
  560      593.333          892
  561      593.753          891
  562      594.173          886
  563      594.593          887
  564      595.013          885
  565      595.433          884
  566      595.853          884
  567      596.273          884
  568      596.693          882
  569      597.112          886
  570      597.532          889
  571      597.951          884
  572       598.37          883
  573      598.789          877
  574      599.208          877
  575      599.627          880
  576      600.046          886
  577      600.465          896
  578      600.884          899
  579      601.303          890
  580      601.721          888
  581      602.139          886
  582      602.558          891
  583      602.976          897
  584      603.394          901
  585      603.812          909
  586       604.23          912
  587      604.648          910
  588      605.066          905
  589      605.484          901
  590      605.901          898
  591      606.319          900
  592      606.736          900
  593      607.154          900
  594      607.571          892
  595      607.988          887
  596      608.405          888
  597      608.822          889
  598      609.239          884
  599      609.656          878
  600      610.072          882
  601      610.489          890
  602      610.905          896
  603      611.322          893
  604      611.738          886
  605      612.154          881
  606       612.57          881
  607      612.986          882
  608      613.402          887
  609      613.818          893
  610      614.234          897
  611       614.65          893
  612      615.065          891
  613      615.481          895
  614      615.896          900
  615      616.311          905
  616      616.727          902
  617      617.142          895
  618      617.557          888
  619      617.972          887
  620      618.386          885
  621      618.801          880
  622      619.216          878
  623       619.63          877
  624      620.045          877
  625      620.459          879
  626      620.873          883
  627      621.287          888
  628      621.702          891
  629      622.116          886
  630      622.529          882
  631      622.943          881
  632      623.357          892
  633      623.771          904
  634      624.184          902
  635      624.597          898
  636      625.011          896
  637      625.424          888
  638      625.837          886
  639       626.25          891
  640      626.663          892
  641      627.076          890
  642      627.489          885
  643      627.901          882
  644      628.314          880
  645      628.726          879
  646      629.139          877
  647      629.551          876
  648      629.963          876
  649      630.375          882
  650      630.787          892
  651      631.199          897
  652      631.611          892
  653      632.023          885
  654      632.434          881
  655      632.846          877
  656      633.257          879
  657      633.669          881
  658       634.08          878
  659      634.491          878
  660      634.902          883
  661      635.313          888
  662      635.724          891
  663      636.135          887
  664      636.545          886
  665      636.956          889
  666      637.366          886
  667      637.777          888
  668      638.187          892
  669      638.597          896
  670      639.007          903
  671      639.417          906
  672      639.827          895
  673      640.237          890
  674      640.647          900
  675      641.056          910
  676      641.466          911
  677      641.875          914
  678      642.285          913
  679      642.694          907
  680      643.103          900
  681      643.512          897
  682      643.921          895
  683       644.33          888
  684      644.739          881
  685      645.148          874
  686      645.556          875
  687      645.965          887
  688      646.373          895
  689      646.781          898
  690      647.189          897
  691      647.598          893
  692      648.006          887
  693      648.414          879
  694      648.821          875
  695      649.229          881
  696      649.637          889
  697      650.044          885
  698      650.452          879
  699      650.859          879
  700      651.266          888
  701      651.673          893
  702       652.08          894
  703      652.487          896
  704      652.894          893
  705      653.301          888
  706      653.708          882
  707      654.114          880
  708      654.521          884
  709      654.927          880
  710      655.333          868
  711       655.74          872
  712      656.146          882
  713      656.552          888
  714      656.958          889
  715      657.363          894
  716      657.769          898
  717      658.175          894
  718       658.58          885
  719      658.986          873
  720      659.391          871
  721      659.796          873
  722      660.201          874
  723      660.606          878
  724      661.011          879
  725      661.416          878
  726      661.821          876
  727      662.225          875
  728       662.63          876
  729      663.034          878
  730      663.439          883
  731      663.843          886
  732      664.247          885
  733      664.651          889
  734      665.055          892
  735      665.459          889
  736      665.863          885
  737      666.267          892
  738       666.67          900
  739      667.074          909
  740      667.477          926
  741       667.88          934
  742      668.283          929
  743      668.687          915
  744       669.09          901
  745      669.492          896
  746      669.895          887
  747      670.298          882
  748      670.701          881
  749      671.103          889
  750      671.505          900
  751      671.908          899
  752       672.31          892
  753      672.712          892
  754      673.114          889
  755      673.516          882
  756      673.918          887
  757       674.32          895
  758      674.721          905
  759      675.123          918
  760      675.524          930
  761      675.926          927
  762      676.327          917
  763      676.728          909
  764      677.129          901
  765       677.53          894
  766      677.931          892
  767      678.332          888
  768      678.732          890
  769      679.133          895
  770      679.533          897
  771      679.934          901
  772      680.334          896
  773      680.734          894
  774      681.134          902
  775      681.534          899
  776      681.934          892
  777      682.334          885
  778      682.733          881
  779      683.133          881
  780      683.532          882
  781      683.932          886
  782      684.331          886
  783       684.73          886
  784      685.129          889
  785      685.528          885
  786      685.927          885
  787      686.326          896
  788      686.725          911
  789      687.123          925
  790      687.522          931
  791       687.92          930
  792      688.319          925
  793      688.717          915
  794      689.115          911
  795      689.513          915
  796      689.911          918
  797      690.309          920
  798      690.706          922
  799      691.104          920
  800      691.501          919
  801      691.899          916
  802      692.296          914
  803      692.693          920
  804       693.09          932
  805      693.488          945
  806      693.884          958
  807      694.281          963
  808      694.678          984
  809      695.075         1141
  810      695.471         1652
  811      695.868         2494
  812      696.264         3298
  813       696.66         3799
  814      697.056         3796
  815      697.452         3272
  816      697.848         2547
  817      698.244         1930
  818       698.64         1533
  819      699.035         1298
  820      699.431         1153
  821      699.826         1074
  822      700.222         1026
  823      700.617          990
  824      701.012          961
  825      701.407          949
  826      701.802          952
  827      702.197          965
  828      702.592          975
  829      702.986          975
  830      703.381          976
  831      703.775          978
  832       704.17          971
  833      704.564          975
  834      704.958         1017
  835      705.352         1201
  836      705.746         1674
  837       706.14         2357
  838      706.533         2987
  839      706.927         3327
  840      707.321         3215
  841      707.714         2719
  842      708.107         2121
  843      708.501         1668
  844      708.894         1384
  845      709.287         1205
  846       709.68         1097
  847      710.073         1032
  848      710.465          986
  849      710.858          963
  850      711.251          950
  851      711.643          936
  852      712.035          932
  853      712.428          929
  854       712.82          921
  855      713.212          941
  856      713.604         1006
  857      713.995         1094
  858      714.387         1185
  859      714.779         1244
  860       715.17         1246
  861      715.562         1199
  862      715.953         1121
  863      716.344         1041
  864      716.735          979
  865      717.127          944
  866      717.517          924
  867      717.908          910
  868      718.299          905
  869       718.69          909
  870       719.08          905
  871      719.471          903
  872      719.861          910
  873      720.251          918
  874      720.641          916
  875      721.031          906
  876      721.421          903
  877      721.811          898
  878      722.201          894
  879       722.59          891
  880       722.98          888
  881      723.369          898
  882      723.759          901
  883      724.148          901
  884      724.537          902
  885      724.926          906
  886      725.315          916
  887      725.704          952
  888      726.092         1059
  889      726.481         1242
  890       726.87         1451
  891      727.258         1608
  892      727.646         1648
  893      728.034         1553
  894      728.423         1391
  895      728.811         1237
  896      729.198         1117
  897      729.586         1041
  898      729.974          993
  899      730.362          964
  900      730.749          954
  901      731.136          947
  902      731.524          939
  903      731.911          936
  904      732.298          941
  905      732.685          939
  906      733.072          930
  907      733.459          928
  908      733.845          928
  909      734.232          935
  910      734.618          944
  911      735.005          954
  912      735.391          967
  913      735.777          980
  914      736.163          996
  915      736.549         1075
  916      736.935         1322
  917      737.321         1914
  918      737.706         2850
  919      738.092         3810
  920      738.477         4416
  921      738.863         4435
  922      739.248         3893
  923      739.633         3057
  924      740.018         2292
  925      740.403         1768
  926      740.788         1447
  927      741.173         1257
  928      741.557         1148
  929      741.942         1081
  930      742.326         1036
  931      742.711         1013
  932      743.095         1005
  933      743.479          998
  934      743.863          991
  935      744.247          985
  936      744.631          980
  937      745.015          985
  938      745.398          990
  939      745.782          990
  940      746.165          988
  941      746.548          985
  942      746.932          988
  943      747.315         1002
  944      747.698         1025
  945      748.081         1063
  946      748.463         1151
  947      748.846         1412
  948      749.229         2089
  949      749.611         3299
  950      749.993         4904
  951      750.376         6511
  952      750.758         7810
  953       751.14         8432
  954      751.522         8065
  955      751.904         7029
  956      752.285         5684
  957      752.667         4280
  958      753.049         3096
  959       753.43         2280
  960      753.811         1787
  961      754.193         1490
  962      754.574         1309
  963      754.955         1199
  964      755.336         1126
  965      755.717         1070
  966      756.097         1044
  967      756.478         1037
  968      756.858         1034
  969      757.239         1032
  970      757.619         1032
  971      757.999         1033
  972      758.379         1029
  973      758.759         1025
  974      759.139         1019
  975      759.519         1021
  976      759.899         1037
  977      760.278         1058
  978      760.658         1072
  979      761.037         1111
  980      761.417         1249
  981      761.796         1668
  982      762.175         2702
  983      762.554         4724
  984      762.933         7540
  985      763.311        10133
  986       763.69        11552
  987      764.068        11352
  988      764.447         9653
  989      764.825         7244
  990      765.203         5052
  991      765.582         3501
  992       765.96         2530
  993      766.338         1951
  994      766.715         1603
  995      767.093         1381
  996      767.471         1242
  997      767.848         1167
  998      768.226         1121
  999      768.603         1096
 1000       768.98         1086
 1001      769.357         1075
 1002      769.734         1068
 1003      770.111         1089
 1004      770.488         1188
 1005      770.864         1471
 1006      771.241         2096
 1007      771.617         3111
 1008      771.994         4304
 1009       772.37         5240
 1010      772.746         5591
 1011      773.122         5271
 1012      773.498         4398
 1013      773.874         3341
 1014       774.25         2468
 1015      774.625         1876
 1016      775.001         1517
 1017      775.376         1309
 1018      775.751         1181
 1019      776.127         1097
 1020      776.502         1046
 1021      776.877         1017
 1022      777.252          993
 1023      777.626          979
 1024      778.001          971
 1025      778.375          961
 1026       778.75          956
 1027      779.124          954
 1028      779.499          957
 1029      779.873          961
 1030      780.247          962
 1031      780.621          961
 1032      780.994          952
 1033      781.368          947
 1034      781.742          934
 1035      782.115          919
 1036      782.489          916
 1037      782.862          922
 1038      783.235          922
 1039      783.608          917
 1040      783.981          918
 1041      784.354          921
 1042      784.727          924
 1043        785.1          923
 1044      785.472          917
 1045      785.845          918
 1046      786.217          920
 1047      786.589          918
 1048      786.961          924
 1049      787.333          926
 1050      787.705          923
 1051      788.077          923
 1052      788.449          925
 1053       788.82          927
 1054      789.192          930
 1055      789.563          940
 1056      789.934          944
 1057      790.306          941
 1058      790.677          943
 1059      791.048          950
 1060      791.419          951
 1061      791.789          956
 1062       792.16          974
 1063       792.53         1008
 1064      792.901         1094
 1065      793.271         1297
 1066      793.641         1652
 1067      794.012         2231
 1068      794.382         2999
 1069      794.751         3713
 1070      795.121         4077
 1071      795.491         4017
 1072      795.861         3595
 1073       796.23         2932
 1074      796.599         2292
 1075      796.969         1809
 1076      797.338         1488
 1077      797.707         1299
 1078      798.076         1200
 1079      798.445         1184
 1080      798.813         1256
 1081      799.182         1465
 1082       799.55         1884
 1083      799.919         2629
 1084      800.287         3718
 1085      800.655         4970
 1086      801.023         6181
 1087      801.391         6997
 1088      801.759         7132
 1089      802.127         6599
 1090      802.495         5596
 1091      802.862         4396
 1092       803.23         3284
 1093      803.597         2443
 1094      803.964         1890
 1095      804.331         1548
 1096      804.698         1353
 1097      805.065         1237
 1098      805.432         1165
 1099      805.799         1127
 1100      806.165         1098
 1101      806.532         1082
 1102      806.898         1079
 1103      807.264         1077
 1104      807.631         1085
 1105      807.997         1122
 1106      808.363         1218
 1107      808.728         1448
 1108      809.094         1864
 1109       809.46         2612
 1110      809.825         3886
 1111      810.191         5608
 1112      810.556         7576
 1113      810.921         9712
 1114      811.286        11656
 1115      811.651        12762
 1116      812.016        12680
 1117      812.381        11470
 1118      812.745         9444
 1119       813.11         7129
 1120      813.474         5072
 1121      813.839         3552
 1122      814.203         2576
 1123      814.567         1973
 1124      814.931         1606
 1125      815.295         1386
 1126      815.659         1251
 1127      816.022         1169
 1128      816.386         1116
 1129      816.749         1079
 1130      817.113         1054
 1131      817.476         1031
 1132      817.839         1020
 1133      818.202         1014
 1134      818.565         1003
 1135      818.928         1000
 1136      819.291          999
 1137      819.653          998
 1138      820.016          996
 1139      820.378          984
 1140       820.74          971
 1141      821.102          959
 1142      821.464          951
 1143      821.826          952
 1144      822.188          957
 1145       822.55          958
 1146      822.912          957
 1147      823.273          960
 1148      823.634          961
 1149      823.996          974
 1150      824.357         1013
 1151      824.718         1104
 1152      825.079         1270
 1153       825.44         1524
 1154      825.801         1875
 1155      826.161         2285
 1156      826.522         2672
 1157      826.882         2929
 1158      827.242         2971
 1159      827.603         2770
 1160      827.963         2387
 1161      828.323         1955
 1162      828.682         1594
 1163      829.042         1343
 1164      829.402         1181
 1165      829.761         1084
 1166      830.121         1031
 1167       830.48          998
 1168      830.839          971
 1169      831.198          957
 1170      831.557          949
 1171      831.916          943
 1172      832.275          946
 1173      832.634          951
 1174      832.992          942
 1175      833.351          931
 1176      833.709          926
 1177      834.067          931
 1178      834.425          935
 1179      834.783          934
 1180      835.141          932
 1181      835.499          928
 1182      835.857          936
 1183      836.214          942
 1184      836.572          938
 1185      836.929          943
 1186      837.286          950
 1187      837.644          955
 1188      838.001          967
 1189      838.357          998
 1190      838.714         1057
 1191      839.071         1174
 1192      839.428         1382
 1193      839.784         1688
 1194       840.14         2136
 1195      840.497         2767
 1196      840.853         3546
 1197      841.209         4341
 1198      841.565         5034
 1199       841.92         5594
 1200      842.276         5964
 1201      842.632         6129
 1202      842.987         6094
 1203      843.343         5803
 1204      843.698         5221
 1205      844.053         4365
 1206      844.408         3407
 1207      844.763         2564
 1208      845.118         1946
 1209      845.472         1555
 1210      845.827         1326
 1211      846.181         1186
 1212      846.536         1100
 1213       846.89         1050
 1214      847.244         1016
 1215      847.598          993
 1216      847.952          975
 1217      848.306          962
 1218       848.66          962
 1219      849.013          965
 1220      849.367          974
 1221       849.72          992
 1222      850.073         1018
 1223      850.427         1062
 1224       850.78         1158
 1225      851.133         1307
 1226      851.485         1484
 1227      851.838         1708
 1228      852.191         1975
 1229      852.543         2232
 1230      852.896         2397
 1231      853.248         2414
 1232        853.6         2263
 1233      853.952         1990
 1234      854.304         1683
 1235      854.656         1413
 1236      855.007         1221
 1237      855.359         1104
 1238       855.71         1035
 1239      856.062          988
 1240      856.413          957
 1241      856.764          946
 1242      857.115          936
 1243      857.466          923
 1244      857.817          919
 1245      858.168          912
 1246      858.518          914
 1247      858.869          914
 1248      859.219          905
 1249      859.569          903
 1250       859.92          902
 1251       860.27          904
 1252      860.619          905
 1253      860.969          904
 1254      861.319          911
 1255      861.669          916
 1256      862.018          921
 1257      862.367          913
 1258      862.717          907
 1259      863.066          903
 1260      863.415          903
 1261      863.764          908
 1262      864.112          907
 1263      864.461          907
 1264       864.81          912
 1265      865.158          928
 1266      865.507          949
 1267      865.855          970
 1268      866.203         1006
 1269      866.551         1053
 1270      866.899         1104
 1271      867.247         1153
 1272      867.594         1180
 1273      867.942         1185
 1274      868.289         1175
 1275      868.637         1132
 1276      868.984         1064
 1277      869.331         1008
 1278      869.678          969
 1279      870.025          945
 1280      870.372          927
 1281      870.718          915
 1282      871.065          906
 1283      871.411          903
 1284      871.758          902
 1285      872.104          901
 1286       872.45          893
 1287      872.796          887
 1288      873.142          883
 1289      873.488          879
 1290      873.833          880
 1291      874.179          886
 1292      874.524          886
 1293      874.869          881
 1294      875.215          882
 1295       875.56          895
 1296      875.905          894
 1297       876.25          886
 1298      876.594          881
 1299      876.939          876
 1300      877.283          880
 1301      877.628          889
 1302      877.972          887
 1303      878.316          882
 1304       878.66          883
 1305      879.004          883
 1306      879.348          874
 1307      879.692          873
 1308      880.035          883
 1309      880.379          885
 1310      880.722          884
 1311      881.066          890
 1312      881.409          889
 1313      881.752          884
 1314      882.095          889
 1315      882.438          884
 1316       882.78          873
 1317      883.123          864
 1318      883.465          862
 1319      883.808          871
 1320       884.15          874
 1321      884.492          876
 1322      884.834          885
 1323      885.176          891
 1324      885.518          891
 1325      885.859          888
 1326      886.201          884
 1327      886.542          881
 1328      886.884          885
 1329      887.225          881
 1330      887.566          884
 1331      887.907          889
 1332      888.248          882
 1333      888.589          884
 1334      888.929          887
 1335       889.27          883
 1336       889.61          879
 1337      889.951          879
 1338      890.291          881
 1339      890.631          879
 1340      890.971          873
 1341      891.311          879
 1342       891.65          880
 1343       891.99          877
 1344      892.329          877
 1345      892.669          872
 1346      893.008          879
 1347      893.347          889
 1348      893.686          889
 1349      894.025          890
 1350      894.364          895
 1351      894.703          893
 1352      895.041          886
 1353       895.38          878
 1354      895.718          877
 1355      896.056          883
 1356      896.395          880
 1357      896.733          878
 1358      897.071          887
 1359      897.408          892
 1360      897.746          887
 1361      898.084          883
 1362      898.421          878
 1363      898.758          877
 1364      899.095          880
 1365      899.433          888
 1366       899.77          892
 1367      900.106          887
 1368      900.443          883
 1369       900.78          875
 1370      901.116          877
 1371      901.453          887
 1372      901.789          890
 1373      902.125          891
 1374      902.461          881
 1375      902.797          869
 1376      903.133          873
 1377      903.469          876
 1378      903.804          880
 1379       904.14          886
 1380      904.475          891
 1381       904.81          898
 1382      905.146          901
 1383      905.481          898
 1384      905.815          899
 1385       906.15          899
 1386      906.485          892
 1387      906.819          886
 1388      907.154          883
 1389      907.488          884
 1390      907.822          889
 1391      908.156          892
 1392       908.49          891
 1393      908.824          901
 1394      909.158          914
 1395      909.492          918
 1396      909.825          926
 1397      910.159          947
 1398      910.492          985
 1399      910.825         1056
 1400      911.158         1161
 1401      911.491         1304
 1402      911.824         1481
 1403      912.157         1695
 1404      912.489         1917
 1405      912.822         2146
 1406      913.154         2366
 1407      913.486         2608
 1408      913.818         2910
 1409       914.15         3155
 1410      914.482         3253
 1411      914.814         3185
 1412      915.146         2928
 1413      915.477         2521
 1414      915.809         2074
 1415       916.14         1686
 1416      916.471         1393
 1417      916.802         1198
 1418      917.133         1081
 1419      917.464         1015
 1420      917.795          981
 1421      918.125          964
 1422      918.456          945
 1423      918.786          932
 1424      919.116          925
 1425      919.446          919
 1426      919.776          925
 1427      920.106          929
 1428      920.436          928
 1429      920.766          936
 1430      921.095          954
 1431      921.425          983
 1432      921.754         1021
 1433      922.083         1074
 1434      922.412         1138
 1435      922.741         1192
 1436       923.07         1229
 1437      923.399         1274
 1438      923.727         1329
 1439      924.056         1390
 1440      924.384         1458
 1441      924.713         1508
 1442      925.041         1520
 1443      925.369         1501
 1444      925.697         1446
 1445      926.024         1336
 1446      926.352         1200
 1447       926.68         1091
 1448      927.007         1019
 1449      927.334          967
 1450      927.662          931
 1451      927.989          914
 1452      928.316          913
 1453      928.643          921
 1454      928.969          908
 1455      929.296          905
 1456      929.622          902
 1457      929.949          897
 1458      930.275          889
 1459      930.601          883
 1460      930.927          887
 1461      931.253          885
 1462      931.579          884
 1463      931.905          885
 1464       932.23          887
 1465      932.556          884
 1466      932.881          884
 1467      933.206          895
 1468      933.531          900
 1469      933.856          895
 1470      934.181          896
 1471      934.506          888
 1472       934.83          889
 1473      935.155          893
 1474      935.479          892
 1475      935.803          892
 1476      936.128          896
 1477      936.452          905
 1478      936.775          904
 1479      937.099          905
 1480      937.423          918
 1481      937.746          931
 1482       938.07          932
 1483      938.393          933
 1484      938.716          928
 1485      939.039          920
 1486      939.362          916
 1487      939.685          910
 1488      940.008          898
 1489      940.331          889
 1490      940.653          886
 1491      940.975          884
 1492      941.298          883
 1493       941.62          883
 1494      941.942          892
 1495      942.264          890
 1496      942.585          885
 1497      942.907          888
 1498      943.229          887
 1499       943.55          885
 1500      943.871          877
 1501      944.192          868
 1502      944.513          864
 1503      944.834          870
 1504      945.155          884
 1505      945.476          887
 1506      945.796          887
 1507      946.117          891
 1508      946.437          892
 1509      946.757          895
 1510      947.078          888
 1511      947.398          878
 1512      947.717          875
 1513      948.037          877
 1514      948.357          878
 1515      948.676          873
 1516      948.996          872
 1517      949.315          875
 1518      949.634          871
 1519      949.953          866
 1520      950.272          875
 1521      950.591          884
 1522      950.909          888
 1523      951.228          886
 1524      951.546          883
 1525      951.865          878
 1526      952.183          873
 1527      952.501          876
 1528      952.819          877
 1529      953.137          878
 1530      953.454          878
 1531      953.772          874
 1532      954.089          871
 1533      954.407          875
 1534      954.724          874
 1535      955.041          873
 1536      955.358          875
 1537      955.675          872
 1538      955.992          874
 1539      956.308          879
 1540      956.625          883
 1541      956.941          881
 1542      957.257          880
 1543      957.574          882
 1544       957.89          880
 1545      958.206          876
 1546      958.521          878
 1547      958.837          879
 1548      959.152          880
 1549      959.468          881
 1550      959.783          879
 1551      960.098          879
 1552      960.413          884
 1553      960.728          885
 1554      961.043          879
 1555      961.358          874
 1556      961.672          875
 1557      961.987          876
 1558      962.301          877
 1559      962.615          884
 1560       962.93          885
 1561      963.244          878
 1562      963.557          881
 1563      963.871          881
 1564      964.185          876
 1565      964.498          881
 1566      964.812          884
 1567      965.125          896
 1568      965.438          908
 1569      965.751          917
 1570      966.064          928
 1571      966.377          950
 1572      966.689          981
 1573      967.002         1007
 1574      967.314         1035
 1575      967.626         1057
 1576      967.939         1070
 1577      968.251         1083
 1578      968.563         1101
 1579      968.874         1119
 1580      969.186         1134
 1581      969.498         1144
 1582      969.809         1150
 1583       970.12         1146
 1584      970.431         1133
 1585      970.743         1117
 1586      971.053         1078
 1587      971.364         1032
 1588      971.675          995
 1589      971.986          963
 1590      972.296          933
 1591      972.606          919
 1592      972.917          914
 1593      973.227          907
 1594      973.537          895
 1595      973.847          887
 1596      974.156          893
 1597      974.466          896
 1598      974.775          891
 1599      975.085          882
 1600      975.394          878
 1601      975.703          884
 1602      976.012          888
 1603      976.321          884
 1604       976.63          890
 1605      976.938          895
 1606      977.247          894
 1607      977.555          888
 1608      977.863          895
 1609      978.172          889
 1610       978.48          884
 1611      978.787          885
 1612      979.095          894
 1613      979.403          899
 1614       979.71          897
 1615      980.018          894
 1616      980.325          904
 1617      980.632          917
 1618      980.939          915
 1619      981.246          917
 1620      981.553          921
 1621       981.86          917
 1622      982.166          913
 1623      982.473          917
 1624      982.779          918
 1625      983.085          915
 1626      983.391          912
 1627      983.697          907
 1628      984.003          903
 1629      984.309          896
 1630      984.614          884
 1631       984.92          879
 1632      985.225          882
 1633       985.53          881
 1634      985.835          881
 1635       986.14          884
 1636      986.445          882
 1637       986.75          880
 1638      987.054          877
 1639      987.359          875
 1640      987.663          874
 1641      987.967          874
 1642      988.271          879
 1643      988.575          883
 1644      988.879          881
 1645      989.183          882
 1646      989.487          881
 1647       989.79          881
 1648      990.093          880
 1649      990.397          877
 1650        990.7          876
 1651      991.003          883
 1652      991.306          886
 1653      991.608          884
 1654      991.911          877
 1655      992.213          878
 1656      992.516          891
 1657      992.818          901
 1658       993.12          896
 1659      993.422          889
 1660      993.724          888
 1661      994.026          885
 1662      994.327          883
 1663      994.629          882
 1664       994.93          886
 1665      995.232          889
 1666      995.533          889
 1667      995.834          890
 1668      996.135          888
 1669      996.435          883
 1670      996.736          876
 1671      997.036          871
 1672      997.337          875
 1673      997.637          881
 1674      997.937          887
 1675      998.237          889
 1676      998.537          882
 1677      998.837          875
 1678      999.137          879
 1679      999.436          883
 1680      999.735          881
 1681      1000.03          885
 1682      1000.33          883
 1683      1000.63          886
 1684      1000.93          889
 1685      1001.23          888
 1686      1001.53          890
 1687      1001.83          888
 1688      1002.13          877
 1689      1002.42          880
 1690      1002.72          891
 1691      1003.02          890
 1692      1003.32          883
 1693      1003.62          885
 1694      1003.91          885
 1695      1004.21          883
 1696      1004.51          882
 1697      1004.81          885
 1698       1005.1          883
 1699       1005.4          876
 1700       1005.7          875
 1701      1005.99          883
 1702      1006.29          882
 1703      1006.59          879
 1704      1006.88          886
 1705      1007.18          889
 1706      1007.48          887
 1707      1007.77          878
 1708      1008.07          878
 1709      1008.36          877
 1710      1008.66          872
 1711      1008.95          871
 1712      1009.25          878
 1713      1009.55          882
 1714      1009.84          880
 1715      1010.14          876
 1716      1010.43          879
 1717      1010.73          881
 1718      1011.02          878
 1719      1011.31          878
 1720      1011.61          882
 1721       1011.9          881
 1722       1012.2          876
 1723      1012.49          876
 1724      1012.79          873
 1725      1013.08          870
 1726      1013.37          863
 1727      1013.67          862
 1728      1013.96          875
 1729      1014.25          883
 1730      1014.55          882
 1731      1014.84          878
 1732      1015.13          874
 1733      1015.42          883
 1734      1015.72          890
 1735      1016.01          888
 1736       1016.3          884
 1737      1016.59          888
 1738      1016.89          885
 1739      1017.18          875
 1740      1017.47          873
 1741      1017.76          879
 1742      1018.05          876
 1743      1018.35          878
 1744      1018.64          885
 1745      1018.93          892
 1746      1019.22          892
 1747      1019.51          891
 1748       1019.8          892
 1749      1020.09          886
 1750      1020.38          884
 1751      1020.67          883
 1752      1020.96          880
 1753      1021.25          881
 1754      1021.54          883
 1755      1021.83          887
 1756      1022.12          886
 1757      1022.41          884
 1758       1022.7          883
 1759      1022.99          888
 1760      1023.28          886
 1761      1023.57          885
 1762      1023.86          882
 1763      1024.15          873
 1764      1024.44          878
 1765      1024.73          885
 1766      1025.02          878
 1767       1025.3          877
 1768      1025.59          877
 1769      1025.88          880
 1770      1026.17          885
 1771      1026.46          880
 1772      1026.74          874
 1773      1027.03          876
 1774      1027.32          882
 1775      1027.61          882
 1776      1027.89          875
 1777      1028.18          869
 1778      1028.47          877
 1779      1028.76          879
 1780      1029.04          874
 1781      1029.33          876
 1782      1029.62          879
 1783       1029.9          881
 1784      1030.19          882
 1785      1030.47          881
 1786      1030.76          883
 1787      1031.05          884
 1788      1031.33          885
 1789      1031.62          884
 1790       1031.9          881
 1791      1032.19          881
 1792      1032.47          882
 1793      1032.76          883
 1794      1033.04          885
 1795      1033.33          881
 1796      1033.61          876
 1797       1033.9          883
 1798      1034.18          887
 1799      1034.47          882
 1800      1034.75          876
 1801      1035.04          878
 1802      1035.32          879
 1803       1035.6          881
 1804      1035.89          884
 1805      1036.17          877
 1806      1036.45          874
 1807      1036.74          878
 1808      1037.02          880
 1809       1037.3          884
 1810      1037.59          886
 1811      1037.87          883
 1812      1038.15          885
 1813      1038.44          888
 1814      1038.72          887
 1815         1039          878
 1816      1039.28          875
 1817      1039.56          875
 1818      1039.85          884
 1819      1040.13          888
 1820      1040.41          881
 1821      1040.69          877
 1822      1040.97          879
 1823      1041.25          880
 1824      1041.54          881
 1825      1041.82          881
 1826       1042.1          884
 1827      1042.38          887
 1828      1042.66          884
 1829      1042.94          885
 1830      1043.22          885
 1831       1043.5          877
 1832      1043.78          873
 1833      1044.06          882
 1834      1044.34          887
 1835      1044.62          882
 1836       1044.9          877
 1837      1045.18          878
 1838      1045.46          886
 1839      1045.74          886
 1840      1046.02          885
 1841       1046.3          891
 1842      1046.58          891
 1843      1046.85          889
 1844      1047.13          896
 1845      1047.41          889
 1846      1047.69          876
 1847      1047.97          874
 1848      1048.25          878
 1849      1048.52          874
 1850       1048.8          872
 1851      1049.08          874
 1852      1049.36          874
 1853      1049.63          873
 1854      1049.91          872
 1855      1050.19          879
 1856      1050.47          881
 1857      1050.74          883
 1858      1051.02          884
 1859       1051.3          881
 1860      1051.57          882
 1861      1051.85          886
 1862      1052.13          884
 1863       1052.4          886
 1864      1052.68          884
 1865      1052.95          879
 1866      1053.23          878
 1867      1053.51          881
 1868      1053.78          883
 1869      1054.06          878
 1870      1054.33          869
 1871      1054.61          868
 1872      1054.88          869
 1873      1055.16          872
 1874      1055.43          873
 1875      1055.71          875
 1876      1055.98          875
 1877      1056.25          876
 1878      1056.53          877
 1879       1056.8          872
 1880      1057.08          869
 1881      1057.35          877
 1882      1057.62          882
 1883       1057.9          881
 1884      1058.17          878
 1885      1058.45          875
 1886      1058.72          874
 1887      1058.99          877
 1888      1059.26          881
 1889      1059.54          880
 1890      1059.81          882
 1891      1060.08          877
 1892      1060.35          871
 1893      1060.63          873
 1894       1060.9          874
 1895      1061.17          877
 1896      1061.44          878
 1897      1061.71          880
 1898      1061.99          879
 1899      1062.26          882
 1900      1062.53          881
 1901       1062.8          879
 1902      1063.07          877
 1903      1063.34          875
 1904      1063.61          876
 1905      1063.88          874
 1906      1064.15          872
 1907      1064.42          872
 1908       1064.7          875
 1909      1064.97          878
 1910      1065.24          878
 1911      1065.51          876
 1912      1065.78          873
 1913      1066.04          869
 1914      1066.31          875
 1915      1066.58          878
 1916      1066.85          877
 1917      1067.12          875
 1918      1067.39          870
 1919      1067.66          871
 1920      1067.93          876
 1921       1068.2          875
 1922      1068.47          870
 1923      1068.73          872
 1924         1069          879
 1925      1069.27          882
 1926      1069.54          888
 1927      1069.81          887
 1928      1070.07          876
 1929      1070.34          869
 1930      1070.61          871
 1931      1070.88          869
 1932      1071.14          868
 1933      1071.41          876
 1934      1071.68          875
 1935      1071.94          869
 1936      1072.21          871
 1937      1072.48          876
 1938      1072.74          873
 1939      1073.01          877
 1940      1073.28          886
 1941      1073.54          890
 1942      1073.81          887
 1943      1074.07          881
 1944      1074.34          886
 1945       1074.6          889
 1946      1074.87          892
 1947      1075.13          890
 1948       1075.4          888
 1949      1075.66          889
 1950      1075.93          891
 1951      1076.19          892
 1952      1076.46          891
 1953      1076.72          888
 1954      1076.99          886
 1955      1077.25          889
 1956      1077.52          888
 1957      1077.78          883
 1958      1078.04          876
 1959      1078.31          874
 1960      1078.57          875
 1961      1078.83          874
 1962       1079.1          875
 1963      1079.36          874
 1964      1079.62          884
 1965      1079.89          886
 1966      1080.15          880
 1967      1080.41          877
 1968      1080.67          875
 1969      1080.94          877
 1970       1081.2          881
 1971      1081.46          883
 1972      1081.72          880
 1973      1081.98          874
 1974      1082.24          872
 1975      1082.51          876
 1976      1082.77          884
 1977      1083.03          886
 1978      1083.29          889
 1979      1083.55          895
 1980      1083.81          893
 1981      1084.07          889
 1982      1084.33          886
 1983      1084.59          879
 1984      1084.85          873
 1985      1085.11          869
 1986      1085.37          875
 1987      1085.63          882
 1988      1085.89          884
 1989      1086.15          881
 1990      1086.41          872
 1991      1086.67          869
 1992      1086.93          871
 1993      1087.19          872
 1994      1087.45          875
 1995      1087.71          881
 1996      1087.97          889
 1997      1088.23          886
 1998      1088.48          876
 1999      1088.74          876
 2000         1089          876
 2001      1089.26          872
 2002      1089.52          871
 2003      1089.77          874
 2004      1090.03          878
 2005      1090.29          880
 2006      1090.55          877
 2007       1090.8          871
 2008      1091.06          873
 2009      1091.32          874
 2010      1091.57          871
 2011      1091.83          871
 2012      1092.09          876
 2013      1092.34          882
 2014       1092.6          881
 2015      1092.86          874
 2016      1093.11          874
 2017      1093.37          882
 2018      1093.62          886
 2019      1093.88          884
 2020      1094.13          877
 2021      1094.39          879
 2022      1094.65          884
 2023       1094.9          884
 2024      1095.16          879
 2025      1095.41          878
 2026      1095.66          880
 2027      1095.92          881
 2028      1096.17          883
 2029      1096.43          882
 2030      1096.68          882
 2031      1096.94          884
 2032      1097.19          885
 2033      1097.44          878
 2034       1097.7          872
 2035      1097.95          872
 2036       1098.2          878
 2037      1098.46          874
 2038      1098.71          873
 2039      1098.96          883
 2040      1099.22          887
 2041      1099.47          886
 2042      1099.72          880
 2043      1099.97          880
 2044      1100.23          879
 2045      1100.48          873
 2046      1100.73          873
 2047      1100.98          884
