scansci Spectrometer Data File
--- Measurement Setting ---
Type: Sample Spectrum
Date: Wed May 26 15:37:46 2021
User: (Reserved by scansci)
Serial: (Reserved by scansci)
Channel: No. 11
Integration Time: 222
Average: 1
Boxcar: 0
Electrical Dark: No-corrected
Time Normalize: (Reserved by scansci)
Dual-beam: (Reserved by scansci)
Reference Ch: (Reserved by scansci)
--- Measurement Data ---
Pixel   Wavelength   Intensity
    0        162.5          813
    1      162.985          824
    2      163.469          834
    3      163.954          835
    4      164.439          841
    5      164.923          846
    6      165.408          841
    7      165.892          833
    8      166.377          831
    9      166.861          842
   10      167.345          850
   11       167.83          841
   12      168.314          837
   13      168.798          835
   14      169.282          840
   15      169.766          842
   16       170.25          832
   17      170.734          824
   18      171.218          822
   19      171.702          819
   20      172.185          829
   21      172.669          840
   22      173.153          838
   23      173.636          836
   24       174.12          837
   25      174.603          861
   26      175.087          870
   27       175.57          849
   28      176.053          849
   29      176.537          847
   30       177.02          838
   31      177.503          834
   32      177.986          829
   33      178.469          826
   34      178.952          832
   35      179.435          841
   36      179.918          863
   37      180.401          877
   38      180.884          865
   39      181.366          856
   40      181.849          846
   41      182.332          846
   42      182.814          848
   43      183.297          841
   44      183.779          841
   45      184.262          842
   46      184.744          841
   47      185.226          831
   48      185.708          829
   49      186.191          832
   50      186.673          827
   51      187.155          823
   52      187.637          827
   53      188.119          825
   54        188.6          829
   55      189.082          836
   56      189.564          842
   57      190.046          840
   58      190.527          838
   59      191.009          833
   60      191.491          837
   61      191.972          843
   62      192.454          849
   63      192.935          841
   64      193.416          833
   65      193.897          840
   66      194.379          849
   67       194.86          845
   68      195.341          840
   69      195.822          845
   70      196.303          845
   71      196.784          855
   72      197.265          854
   73      197.746          841
   74      198.226          838
   75      198.707          838
   76      199.188          845
   77      199.668          852
   78      200.149          853
   79      200.629          854
   80       201.11          854
   81       201.59          854
   82       202.07          844
   83       202.55          843
   84      203.031          845
   85      203.511          836
   86      203.991          834
   87      204.471          838
   88      204.951          843
   89      205.431          840
   90       205.91          841
   91       206.39          844
   92       206.87          841
   93      207.349          844
   94      207.829          855
   95      208.309          851
   96      208.788          841
   97      209.267          841
   98      209.747          844
   99      210.226          835
  100      210.705          832
  101      211.185          849
  102      211.664          849
  103      212.143          843
  104      212.622          839
  105      213.101          831
  106      213.579          834
  107      214.058          835
  108      214.537          829
  109      215.016          820
  110      215.494          820
  111      215.973          838
  112      216.452          845
  113       216.93          834
  114      217.408          834
  115      217.887          832
  116      218.365          833
  117      218.843          835
  118      219.321          841
  119      219.799          843
  120      220.278          846
  121      220.755          851
  122      221.233          850
  123      221.711          839
  124      222.189          839
  125      222.667          838
  126      223.144          838
  127      223.622          844
  128        224.1          841
  129      224.577          837
  130      225.055          838
  131      225.532          844
  132      226.009          852
  133      226.486          854
  134      226.964          849
  135      227.441          841
  136      227.918          836
  137      228.395          833
  138      228.872          834
  139      229.349          824
  140      229.826          829
  141      230.302          837
  142      230.779          834
  143      231.256          840
  144      231.732          847
  145      232.209          847
  146      232.685          847
  147      233.162          843
  148      233.638          829
  149      234.114          821
  150       234.59          825
  151      235.066          832
  152      235.543          838
  153      236.019          838
  154      236.495          840
  155       236.97          843
  156      237.446          835
  157      237.922          829
  158      238.398          834
  159      238.873          839
  160      239.349          844
  161      239.824          850
  162        240.3          845
  163      240.775          840
  164      241.251          837
  165      241.726          834
  166      242.201          840
  167      242.676          845
  168      243.151          834
  169      243.626          833
  170      244.101          843
  171      244.576          835
  172      245.051          819
  173      245.526          811
  174          246          813
  175      246.475          823
  176       246.95          824
  177      247.424          823
  178      247.899          826
  179      248.373          825
  180      248.847          824
  181      249.321          820
  182      249.796          823
  183       250.27          827
  184      250.744          824
  185      251.218          829
  186      251.692          835
  187      252.166          837
  188      252.639          839
  189      253.113          834
  190      253.587          829
  191       254.06          830
  192      254.534          839
  193      255.007          844
  194      255.481          832
  195      255.954          829
  196      256.427          832
  197      256.901          830
  198      257.374          828
  199      257.847          822
  200       258.32          822
  201      258.793          832
  202      259.266          838
  203      259.739          842
  204      260.211          841
  205      260.684          843
  206      261.157          850
  207      261.629          842
  208      262.102          829
  209      262.574          819
  210      263.046          821
  211      263.519          824
  212      263.991          826
  213      264.463          822
  214      264.935          823
  215      265.407          830
  216      265.879          841
  217      266.351          844
  218      266.823          843
  219      267.295          846
  220      267.766          847
  221      268.238          842
  222       268.71          847
  223      269.181          839
  224      269.653          834
  225      270.124          834
  226      270.595          836
  227      271.066          837
  228      271.538          844
  229      272.009          839
  230       272.48          826
  231      272.951          821
  232      273.422          821
  233      273.892          837
  234      274.363          838
  235      274.834          826
  236      275.305          827
  237      275.775          827
  238      276.246          832
  239      276.716          837
  240      277.186          846
  241      277.657          845
  242      278.127          831
  243      278.597          827
  244      279.067          834
  245      279.537          834
  246      280.007          832
  247      280.477          831
  248      280.947          822
  249      281.417          822
  250      281.886          834
  251      282.356          837
  252      282.825          832
  253      283.295          831
  254      283.764          836
  255      284.234          848
  256      284.703          846
  257      285.172          844
  258      285.641          836
  259       286.11          825
  260      286.579          828
  261      287.048          828
  262      287.517          826
  263      287.986          829
  264      288.454          826
  265      288.923          815
  266      289.392          816
  267       289.86          829
  268      290.329          836
  269      290.797          832
  270      291.265          833
  271      291.734          846
  272      292.202          848
  273       292.67          832
  274      293.138          829
  275      293.606          837
  276      294.074          835
  277      294.541          830
  278      295.009          824
  279      295.477          821
  280      295.944          825
  281      296.412          829
  282      296.879          829
  283      297.347          829
  284      297.814          832
  285      298.281          825
  286      298.749          825
  287      299.216          829
  288      299.683          827
  289       300.15          836
  290      300.616          838
  291      301.083          830
  292       301.55          833
  293      302.017          843
  294      302.483          845
  295       302.95          832
  296      303.416          829
  297      303.883          823
  298      304.349          828
  299      304.815          831
  300      305.281          829
  301      305.748          828
  302      306.214          835
  303       306.68          840
  304      307.146          833
  305      307.611          831
  306      308.077          836
  307      308.543          841
  308      309.008          837
  309      309.474          830
  310      309.939          826
  311      310.405          830
  312       310.87          830
  313      311.335          830
  314        311.8          838
  315      312.266          836
  316      312.731          833
  317      313.196          830
  318       313.66          841
  319      314.125          851
  320       314.59          841
  321      315.055          828
  322      315.519          832
  323      315.984          839
  324      316.448          837
  325      316.913          832
  326      317.377          821
  327      317.841          828
  328      318.305          829
  329      318.769          832
  330      319.233          831
  331      319.697          819
  332      320.161          825
  333      320.625          841
  334      321.089          845
  335      321.552          841
  336      322.016          845
  337      322.479          855
  338      322.943          857
  339      323.406          847
  340      323.869          845
  341      324.333          847
  342      324.796          849
  343      325.259          840
  344      325.722          832
  345      326.185          829
  346      326.647          835
  347       327.11          843
  348      327.573          840
  349      328.035          820
  350      328.498          813
  351       328.96          821
  352      329.423          836
  353      329.885          832
  354      330.347          823
  355       330.81          832
  356      331.272          841
  357      331.734          836
  358      332.196          829
  359      332.657          831
  360      333.119          835
  361      333.581          840
  362      334.043          850
  363      334.504          849
  364      334.966          846
  365      335.427          841
  366      335.888          833
  367       336.35          832
  368      336.811          836
  369      337.272          832
  370      337.733          832
  371      338.194          835
  372      338.655          839
  373      339.115          837
  374      339.576          830
  375      340.037          835
  376      340.497          847
  377      340.958          841
  378      341.418          831
  379      341.879          830
  380      342.339          832
  381      342.799          828
  382      343.259          853
  383      343.719          867
  384      344.179          851
  385      344.639          849
  386      345.099          850
  387      345.559          844
  388      346.018          834
  389      346.478          839
  390      346.937          840
  391      347.397          835
  392      347.856          827
  393      348.315          827
  394      348.774          832
  395      349.234          830
  396      349.693          821
  397      350.152          819
  398       350.61          819
  399      351.069          816
  400      351.528          829
  401      351.987          832
  402      352.445          824
  403      352.904          822
  404      353.362          825
  405       353.82          826
  406      354.279          830
  407      354.737          841
  408      355.195          859
  409      355.653          858
  410      356.111          855
  411      356.569          847
  412      357.027          847
  413      357.484          848
  414      357.942          841
  415      358.399          837
  416      358.857          841
  417      359.314          832
  418      359.772          822
  419      360.229          829
  420      360.686          837
  421      361.143          837
  422        361.6          832
  423      362.057          832
  424      362.514          839
  425      362.971          840
  426      363.427          838
  427      363.884          841
  428       364.34          850
  429      364.797          853
  430      365.253          850
  431      365.709          841
  432      366.166          837
  433      366.622          838
  434      367.078          837
  435      367.534          838
  436       367.99          843
  437      368.445          846
  438      368.901          842
  439      369.357          845
  440      369.812          839
  441      370.268          836
  442      370.723          843
  443      371.179          843
  444      371.634          838
  445      372.089          836
  446      372.544          845
  447      372.999          849
  448      373.454          847
  449      373.909          841
  450      374.364          832
  451      374.818          820
  452      375.273          817
  453      375.727          819
  454      376.182          825
  455      376.636          825
  456       377.09          828
  457      377.545          834
  458      377.999          838
  459      378.453          833
  460      378.907          835
  461      379.361          842
  462      379.814          834
  463      380.268          832
  464      380.722          834
  465      381.175          828
  466      381.629          832
  467      382.082          841
  468      382.535          843
  469      382.989          840
  470      383.442          838
  471      383.895          842
  472      384.348          841
  473      384.801          826
  474      385.253          829
  475      385.706          826
  476      386.159          820
  477      386.611          822
  478      387.064          825
  479      387.516          825
  480      387.968          827
  481      388.421          837
  482      388.873          833
  483      389.325          824
  484      389.777          827
  485      390.229          830
  486      390.681          825
  487      391.132          824
  488      391.584          825
  489      392.035          830
  490      392.487          838
  491      392.938          846
  492       393.39          857
  493      393.841          875
  494      394.292          887
  495      394.743          886
  496      395.194          877
  497      395.645          864
  498      396.096          848
  499      396.546          831
  500      396.997          835
  501      397.448          840
  502      397.898          837
  503      398.349          827
  504      398.799          824
  505      399.249          824
  506      399.699          827
  507      400.149          828
  508      400.599          830
  509      401.049          835
  510      401.499          826
  511      401.949          826
  512      402.398          833
  513      402.848          833
  514      403.297          855
  515      403.747          878
  516      404.196          880
  517      404.645          867
  518      405.094          857
  519      405.543          849
  520      405.992          845
  521      406.441          842
  522       406.89          837
  523      407.339          832
  524      407.787          826
  525      408.236          816
  526      408.684          810
  527      409.132          817
  528      409.581          835
  529      410.029          844
  530      410.477          847
  531      410.925          857
  532      411.373          853
  533      411.821          851
  534      412.269          853
  535      412.716          856
  536      413.164          880
  537      413.611          890
  538      414.059          893
  539      414.506          960
  540      414.953         1103
  541        415.4         1206
  542      415.847         1203
  543      416.294         1135
  544      416.741         1068
  545      417.188         1029
  546      417.635         1006
  547      418.081         1028
  548      418.528         1119
  549      418.974         1284
  550      419.421         1408
  551      419.867         1393
  552      420.313         1286
  553      420.759         1146
  554      421.205         1035
  555      421.651          961
  556      422.097          920
  557      422.543          897
  558      422.989          885
  559      423.434          869
  560       423.88          869
  561      424.325          893
  562       424.77          940
  563      425.216         1005
  564      425.661         1068
  565      426.106         1138
  566      426.551         1160
  567      426.996         1117
  568       427.44         1049
  569      427.885          987
  570       428.33          945
  571      428.774          946
  572      429.219          976
  573      429.663          996
  574      430.107          979
  575      430.551          942
  576      430.996          921
  577       431.44          907
  578      431.883          907
  579      432.327          950
  580      432.771         1000
  581      433.215         1012
  582      433.658          999
  583      434.102          981
  584      434.545          956
  585      434.988          922
  586      435.431          897
  587      435.875          874
  588      436.318          867
  589      436.761          862
  590      437.203          860
  591      437.646          848
  592      438.089          842
  593      438.531          851
  594      438.974          851
  595      439.416          843
  596      439.859          841
  597      440.301          837
  598      440.743          832
  599      441.185          835
  600      441.627          836
  601      442.069          835
  602       442.51          842
  603      442.952          843
  604      443.394          841
  605      443.835          840
  606      444.277          836
  607      444.718          833
  608      445.159          834
  609        445.6          837
  610      446.041          833
  611      446.482          836
  612      446.923          842
  613      447.364          842
  614      447.804          841
  615      448.245          843
  616      448.685          846
  617      449.126          842
  618      449.566          847
  619      450.006          875
  620      450.447          917
  621      450.887          939
  622      451.326          937
  623      451.766          927
  624      452.206          904
  625      452.646          879
  626      453.085          863
  627      453.525          850
  628      453.964          846
  629      454.403          849
  630      454.843          849
  631      455.282          853
  632      455.721          860
  633       456.16          847
  634      456.599          835
  635      457.037          829
  636      457.476          827
  637      457.915          820
  638      458.353          825
  639      458.791          837
  640       459.23          847
  641      459.668          858
  642      460.106          851
  643      460.544          838
  644      460.982          825
  645       461.42          832
  646      461.857          847
  647      462.295          849
  648      462.733          844
  649       463.17          841
  650      463.607          838
  651      464.045          830
  652      464.482          833
  653      464.919          831
  654      465.356          822
  655      465.793          821
  656       466.23          831
  657      466.666          837
  658      467.103          839
  659      467.539          843
  660      467.976          844
  661      468.412          848
  662      468.848          856
  663      469.284          855
  664       469.72          856
  665      470.156          859
  666      470.592          857
  667      471.028          848
  668      471.464          846
  669      471.899          840
  670      472.335          834
  671       472.77          830
  672      473.205          829
  673      473.641          836
  674      474.076          843
  675      474.511          843
  676      474.946          832
  677       475.38          823
  678      475.815          819
  679       476.25          833
  680      476.684          841
  681      477.119          833
  682      477.553          829
  683      477.987          832
  684      478.421          838
  685      478.856          837
  686      479.289          842
  687      479.723          847
  688      480.157          838
  689      480.591          827
  690      481.024          820
  691      481.458          821
  692      481.891          820
  693      482.324          822
  694      482.758          823
  695      483.191          825
  696      483.624          828
  697      484.057          831
  698      484.489          835
  699      484.922          830
  700      485.355          830
  701      485.787          829
  702       486.22          828
  703      486.652          843
  704      487.084          858
  705      487.516          853
  706      487.948          846
  707       488.38          848
  708      488.812          851
  709      489.244          845
  710      489.676          848
  711      490.107          836
  712      490.539          832
  713       490.97          830
  714      491.401          831
  715      491.832          831
  716      492.263          832
  717      492.694          836
  718      493.125          833
  719      493.556          825
  720      493.987          834
  721      494.417          846
  722      494.848          843
  723      495.278          841
  724      495.708          842
  725      496.139          830
  726      496.569          827
  727      496.999          831
  728      497.429          844
  729      497.858          842
  730      498.288          836
  731      498.718          836
  732      499.147          840
  733      499.577          839
  734      500.006          834
  735      500.435          829
  736      500.864          829
  737      501.293          835
  738      501.722          834
  739      502.151          835
  740       502.58          837
  741      503.008          835
  742      503.437          841
  743      503.865          849
  744      504.293          844
  745      504.722          841
  746       505.15          841
  747      505.578          840
  748      506.006          837
  749      506.434          834
  750      506.861          829
  751      507.289          827
  752      507.716          828
  753      508.144          831
  754      508.571          839
  755      508.998          833
  756      509.425          829
  757      509.852          830
  758      510.279          833
  759      510.706          834
  760      511.133          839
  761       511.56          845
  762      511.986          839
  763      512.412          830
  764      512.839          826
  765      513.265          835
  766      513.691          837
  767      514.117          844
  768      514.543          847
  769      514.969          843
  770      515.395          845
  771       515.82          853
  772      516.246          859
  773      516.671          862
  774      517.096          853
  775      517.522          851
  776      517.947          849
  777      518.372          845
  778      518.797          844
  779      519.222          837
  780      519.646          839
  781      520.071          842
  782      520.495          839
  783       520.92          833
  784      521.344          832
  785      521.768          834
  786      522.192          831
  787      522.616          824
  788       523.04          821
  789      523.464          822
  790      523.888          824
  791      524.311          827
  792      524.735          829
  793      525.158          829
  794      525.581          834
  795      526.005          821
  796      526.428          818
  797      526.851          831
  798      527.274          854
  799      527.696          859
  800      528.119          846
  801      528.542          839
  802      528.964          837
  803      529.386          833
  804      529.809          828
  805      530.231          824
  806      530.653          827
  807      531.075          824
  808      531.497          825
  809      531.918          825
  810       532.34          831
  811      532.761          830
  812      533.183          823
  813      533.604          826
  814      534.025          825
  815      534.447          823
  816      534.868          827
  817      535.289          823
  818      535.709          827
  819       536.13          839
  820      536.551          841
  821      536.971          828
  822      537.392          828
  823      537.812          832
  824      538.232          838
  825      538.652          835
  826      539.072          825
  827      539.492          829
  828      539.912          829
  829      540.331          827
  830      540.751          830
  831       541.17          838
  832       541.59          834
  833      542.009          827
  834      542.428          835
  835      542.847          833
  836      543.266          832
  837      543.685          837
  838      544.104          842
  839      544.522          841
  840      544.941          840
  841      545.359          837
  842      545.778          837
  843      546.196          840
  844      546.614          837
  845      547.032          834
  846       547.45          837
  847      547.867          839
  848      548.285          836
  849      548.703          838
  850       549.12          846
  851      549.538          840
  852      549.955          832
  853      550.372          826
  854      550.789          823
  855      551.206          815
  856      551.623          816
  857      552.039          821
  858      552.456          824
  859      552.873          826
  860      553.289          824
  861      553.705          828
  862      554.121          842
  863      554.537          846
  864      554.953          857
  865      555.369          863
  866      555.785          857
  867      556.201          858
  868      556.616          853
  869      557.032          855
  870      557.447          847
  871      557.862          840
  872      558.277          836
  873      558.692          836
  874      559.107          844
  875      559.522          849
  876      559.937          857
  877      560.351          860
  878      560.766          847
  879       561.18          840
  880      561.595          835
  881      562.009          828
  882      562.423          825
  883      562.837          813
  884       563.25          809
  885      563.664          819
  886      564.078          830
  887      564.491          836
  888      564.905          841
  889      565.318          834
  890      565.731          833
  891      566.144          825
  892      566.557          815
  893       566.97          810
  894      567.383          808
  895      567.795          814
  896      568.208          813
  897       568.62          814
  898      569.033          823
  899      569.445          829
  900      569.857          824
  901      570.269          812
  902      570.681          821
  903      571.093          829
  904      571.504          825
  905      571.916          820
  906      572.327          815
  907      572.739          820
  908       573.15          833
  909      573.561          848
  910      573.972          848
  911      574.383          828
  912      574.794          814
  913      575.204          809
  914      575.615          811
  915      576.025          823
  916      576.436          831
  917      576.846          830
  918      577.256          832
  919      577.666          832
  920      578.076          825
  921      578.486          821
  922      578.896          827
  923      579.305          832
  924      579.715          836
  925      580.124          827
  926      580.533          827
  927      580.942          833
  928      581.351          830
  929       581.76          831
  930      582.169          852
  931      582.578          868
  932      582.986          855
  933      583.395          849
  934      583.803          847
  935      584.212          827
  936       584.62          827
  937      585.028          838
  938      585.436          831
  939      585.843          833
  940      586.251          840
  941      586.659          831
  942      587.066          827
  943      587.474          835
  944      587.881          845
  945      588.288          845
  946      588.695          840
  947      589.102          832
  948      589.509          823
  949      589.915          827
  950      590.322          831
  951      590.728          838
  952      591.135          847
  953      591.541          856
  954      591.947          888
  955      592.353          903
  956      592.759          874
  957      593.165          852
  958      593.571          847
  959      593.976          851
  960      594.382          853
  961      594.787          842
  962      595.192          832
  963      595.597          826
  964      596.002          825
  965      596.407          825
  966      596.812          829
  967      597.217          835
  968      597.621          835
  969      598.026          848
  970       598.43          855
  971      598.834          849
  972      599.238          843
  973      599.642          839
  974      600.046          842
  975       600.45          842
  976      600.854          834
  977      601.257          824
  978      601.661          830
  979      602.064          841
  980      602.467          868
  981       602.87          886
  982      603.273          878
  983      603.676          863
  984      604.079          859
  985      604.481          863
  986      604.884          862
  987      605.286          851
  988      605.689          846
  989      606.091          849
  990      606.493          848
  991      606.895          840
  992      607.297          831
  993      607.698          824
  994        608.1          821
  995      608.501          819
  996      608.903          822
  997      609.304          839
  998      609.705          853
  999      610.106          854
 1000      610.507          867
 1001      610.908          868
 1002      611.308          855
 1003      611.709          850
 1004      612.109          845
 1005       612.51          847
 1006       612.91          834
 1007       613.31          829
 1008       613.71          825
 1009       614.11          815
 1010       614.51          817
 1011      614.909          821
 1012      615.309          853
 1013      615.708          877
 1014      616.108          859
 1015      616.507          847
 1016      616.906          843
 1017      617.305          832
 1018      617.704          826
 1019      618.102          832
 1020      618.501          825
 1021      618.899          822
 1022      619.298          819
 1023      619.696          816
 1024      620.094          825
 1025      620.492          830
 1026       620.89          823
 1027      621.288          816
 1028      621.686          815
 1029      622.083          820
 1030       622.48          820
 1031      622.878          813
 1032      623.275          823
 1033      623.672          824
 1034      624.069          817
 1035      624.466          818
 1036      624.863          820
 1037      625.259          818
 1038      625.656          817
 1039      626.052          827
 1040      626.448          857
 1041      626.844          861
 1042      627.241          841
 1043      627.636          841
 1044      628.032          841
 1045      628.428          835
 1046      628.823          837
 1047      629.219          840
 1048      629.614          835
 1049      630.009          836
 1050      630.404          834
 1051      630.799          825
 1052      631.194          823
 1053      631.589          821
 1054      631.984          816
 1055      632.378          814
 1056      632.772          807
 1057      633.167          808
 1058      633.561          817
 1059      633.955          825
 1060      634.349          817
 1061      634.743          812
 1062      635.136          807
 1063       635.53          821
 1064      635.923          835
 1065      636.316          825
 1066       636.71          823
 1067      637.103          825
 1068      637.496          827
 1069      637.888          831
 1070      638.281          831
 1071      638.674          826
 1072      639.066          828
 1073      639.459          823
 1074      639.851          825
 1075      640.243          840
 1076      640.635          850
 1077      641.027          853
 1078      641.419          852
 1079       641.81          845
 1080      642.202          840
 1081      642.593          834
 1082      642.984          832
 1083      643.375          836
 1084      643.766          837
 1085      644.157          833
 1086      644.548          829
 1087      644.939          825
 1088      645.329          821
 1089       645.72          821
 1090       646.11          818
 1091        646.5          815
 1092       646.89          813
 1093       647.28          815
 1094       647.67          818
 1095       648.06          819
 1096      648.449          826
 1097      648.839          832
 1098      649.228          819
 1099      649.617          813
 1100      650.007          814
 1101      650.396          819
 1102      650.784          841
 1103      651.173          857
 1104      651.562          847
 1105       651.95          829
 1106      652.339          820
 1107      652.727          817
 1108      653.115          815
 1109      653.503          817
 1110      653.891          826
 1111      654.279          827
 1112      654.666          819
 1113      655.054          818
 1114      655.441          845
 1115      655.828          872
 1116      656.216          859
 1117      656.603          839
 1118      656.989          830
 1119      657.376          829
 1120      657.763          825
 1121      658.149          819
 1122      658.536          826
 1123      658.922          829
 1124      659.308          825
 1125      659.694          821
 1126       660.08          823
 1127      660.466          820
 1128      660.852          817
 1129      661.237          823
 1130      661.623          822
 1131      662.008          822
 1132      662.393          824
 1133      662.778          823
 1134      663.163          829
 1135      663.548          823
 1136      663.933          816
 1137      664.317          820
 1138      664.702          830
 1139      665.086          831
 1140       665.47          829
 1141      665.854          833
 1142      666.238          847
 1143      666.622          875
 1144      667.006          903
 1145      667.389          907
 1146      667.773          896
 1147      668.156          874
 1148      668.539          852
 1149      668.923          839
 1150      669.305          827
 1151      669.688          820
 1152      670.071          824
 1153      670.454          817
 1154      670.836          819
 1155      671.218          822
 1156      671.601          821
 1157      671.983          819
 1158      672.365          816
 1159      672.747          819
 1160      673.128          826
 1161       673.51          835
 1162      673.891          850
 1163      674.273          879
 1164      674.654          906
 1165      675.035          899
 1166      675.416          874
 1167      675.797          854
 1168      676.177          841
 1169      676.558          842
 1170      676.938          841
 1171      677.319          832
 1172      677.699          827
 1173      678.079          814
 1174      678.459          814
 1175      678.839          815
 1176      679.219          823
 1177      679.598          827
 1178      679.978          822
 1179      680.357          821
 1180      680.736          829
 1181      681.115          833
 1182      681.494          823
 1183      681.873          817
 1184      682.252          820
 1185       682.63          820
 1186      683.009          817
 1187      683.387          840
 1188      683.765          856
 1189      684.143          842
 1190      684.521          850
 1191      684.899          856
 1192      685.277          846
 1193      685.654          854
 1194      686.032          865
 1195      686.409          877
 1196      686.786          876
 1197      687.163          863
 1198       687.54          849
 1199      687.917          841
 1200      688.294          845
 1201       688.67          853
 1202      689.046          844
 1203      689.423          832
 1204      689.799          834
 1205      690.175          832
 1206      690.551          826
 1207      690.927          823
 1208      691.302          857
 1209      691.678          884
 1210      692.053          868
 1211      692.428          864
 1212      692.804          859
 1213      693.179          866
 1214      693.553          881
 1215      693.928          903
 1216      694.303         1044
 1217      694.677         1479
 1218      695.052         2237
 1219      695.426         3207
 1220        695.8         4096
 1221      696.174         4212
 1222      696.548         3436
 1223      696.921         2516
 1224      697.295         1881
 1225      697.669         1486
 1226      698.042         1237
 1227      698.415         1087
 1228      698.788          995
 1229      699.161          942
 1230      699.534          919
 1231      699.907          913
 1232      700.279          896
 1233      700.652          874
 1234      701.024          860
 1235      701.396          862
 1236      701.768          877
 1237       702.14          884
 1238      702.512          879
 1239      702.883          864
 1240      703.255          852
 1241      703.626          839
 1242      703.998          851
 1243      704.369          946
 1244       704.74         1248
 1245      705.111         1799
 1246      705.481         2530
 1247      705.852         3295
 1248      706.222         3599
 1249      706.593         3115
 1250      706.963         2343
 1251      707.333         1783
 1252      707.703         1440
 1253      708.073         1209
 1254      708.442         1055
 1255      708.812          974
 1256      709.181          932
 1257      709.551          903
 1258       709.92          879
 1259      710.289          865
 1260      710.658          858
 1261      711.027          854
 1262      711.395          847
 1263      711.764          843
 1264      712.132          846
 1265        712.5          866
 1266      712.869          917
 1267      713.236          994
 1268      713.604         1088
 1269      713.972         1173
 1270       714.34         1174
 1271      714.707         1082
 1272      715.074          989
 1273      715.442          929
 1274      715.809          897
 1275      716.176          875
 1276      716.542          859
 1277      716.909          865
 1278      717.276          868
 1279      717.642          854
 1280      718.008          846
 1281      718.374          839
 1282       718.74          833
 1283      719.106          837
 1284      719.472          845
 1285      719.838          851
 1286      720.203          850
 1287      720.568          835
 1288      720.934          831
 1289      721.299          824
 1290      721.664          821
 1291      722.029          824
 1292      722.393          827
 1293      722.758          817
 1294      723.122          820
 1295      723.486          838
 1296      723.851          833
 1297      724.215          824
 1298      724.578          839
 1299      724.942          887
 1300      725.306          994
 1301      725.669         1161
 1302      726.033         1335
 1303      726.396         1480
 1304      726.759         1574
 1305      727.122         1490
 1306      727.485         1264
 1307      727.847         1098
 1308       728.21          993
 1309      728.572          934
 1310      728.935          901
 1311      729.297          880
 1312      729.659          868
 1313      730.021          868
 1314      730.382          864
 1315      730.744          849
 1316      731.105          846
 1317      731.467          839
 1318      731.828          833
 1319      732.189          833
 1320       732.55          841
 1321      732.911          841
 1322      733.271          838
 1323      733.632          833
 1324      733.992          843
 1325      734.352          848
 1326      734.713          855
 1327      735.072          875
 1328      735.432          908
 1329      735.792         1027
 1330      736.152         1345
 1331      736.511         1890
 1332       736.87         2580
 1333      737.229         3281
 1334      737.589         3832
 1335      737.947         3806
 1336      738.306         3101
 1337      738.665         2304
 1338      739.023         1754
 1339      739.382         1432
 1340       739.74         1225
 1341      740.098         1080
 1342      740.456          991
 1343      740.814          937
 1344      741.171          907
 1345      741.529          892
 1346      741.886          885
 1347      742.244          880
 1348      742.601          877
 1349      742.958          874
 1350      743.314          863
 1351      743.671          856
 1352      744.028          847
 1353      744.384          837
 1354       744.74          837
 1355      745.097          841
 1356      745.453          840
 1357      745.809          844
 1358      746.164          855
 1359       746.52          858
 1360      746.875          863
 1361      747.231          891
 1362      747.586          993
 1363      747.941         1301
 1364      748.296         1896
 1365      748.651         2751
 1366      749.005         3870
 1367       749.36         5174
 1368      749.714         6345
 1369      750.069         6794
 1370      750.423         6510
 1371      750.777         5937
 1372       751.13         5032
 1373      751.484         3797
 1374      751.838         2705
 1375      752.191         2000
 1376      752.544         1573
 1377      752.897         1298
 1378       753.25         1129
 1379      753.603         1031
 1380      753.956          967
 1381      754.309          929
 1382      754.661          905
 1383      755.013          887
 1384      755.365          884
 1385      755.717          879
 1386      756.069          869
 1387      756.421          862
 1388      756.773          859
 1389      757.124          857
 1390      757.476          868
 1391      757.827          873
 1392      758.178          862
 1393      758.529          846
 1394      758.879          838
 1395       759.23          838
 1396      759.581          846
 1397      759.931          878
 1398      760.281          954
 1399      760.631         1243
 1400      760.981         2043
 1401      761.331         3501
 1402      761.681         5276
 1403       762.03         7017
 1404      762.379         8560
 1405      762.729         9479
 1406      763.078         9173
 1407      763.427         7376
 1408      763.776         5110
 1409      764.124         3504
 1410      764.473         2530
 1411      764.821         1906
 1412      765.169         1499
 1413      765.517         1258
 1414      765.865         1117
 1415      766.213         1028
 1416      766.561          974
 1417      766.909          941
 1418      767.256          925
 1419      767.603          908
 1420       767.95          890
 1421      768.297          872
 1422      768.644          872
 1423      768.991          881
 1424      769.337          937
 1425      769.684         1162
 1426       770.03         1577
 1427      770.376         2143
 1428      770.722         2759
 1429      771.068         3325
 1430      771.414         3795
 1431      771.759         3944
 1432      772.105         3603
 1433       772.45         2866
 1434      772.795         2117
 1435       773.14         1623
 1436      773.485         1319
 1437       773.83         1141
 1438      774.174         1037
 1439      774.519          963
 1440      774.863          912
 1441      775.207          884
 1442      775.551          871
 1443      775.895          857
 1444      776.239          858
 1445      776.582          851
 1446      776.926          856
 1447      777.269          860
 1448      777.612          858
 1449      777.955          851
 1450      778.298          845
 1451      778.641          847
 1452      778.983          842
 1453      779.326          836
 1454      779.668          835
 1455       780.01          826
 1456      780.352          821
 1457      780.694          821
 1458      781.036          819
 1459      781.377          817
 1460      781.719          818
 1461       782.06          819
 1462      782.401          822
 1463      782.742          821
 1464      783.083          824
 1465      783.424          837
 1466      783.764          844
 1467      784.105          831
 1468      784.445          832
 1469      784.785          840
 1470      785.125          838
 1471      785.465          837
 1472      785.805          836
 1473      786.144          833
 1474      786.484          828
 1475      786.823          823
 1476      787.162          823
 1477      787.501          828
 1478       787.84          832
 1479      788.178          836
 1480      788.517          838
 1481      788.855          829
 1482      789.194          827
 1483      789.532          851
 1484       789.87          859
 1485      790.208          844
 1486      790.545          835
 1487      790.883          843
 1488       791.22          852
 1489      791.557          883
 1490      791.894          985
 1491      792.231         1162
 1492      792.568         1419
 1493      792.905         1729
 1494      793.241         2026
 1495      793.578         2233
 1496      793.914         2296
 1497       794.25         2201
 1498      794.586         1965
 1499      794.922         1656
 1500      795.257         1376
 1501      795.593         1178
 1502      795.928         1056
 1503      796.263          973
 1504      796.598          923
 1505      796.933          896
 1506      797.268          893
 1507      797.603          948
 1508      797.937         1095
 1509      798.271         1349
 1510      798.606         1731
 1511       798.94         2213
 1512      799.274         2730
 1513      799.607         3169
 1514      799.941         3444
 1515      800.274         3498
 1516      800.608         3276
 1517      800.941         2857
 1518      801.274         2353
 1519      801.607         1887
 1520      801.939         1526
 1521      802.272         1267
 1522      802.604         1112
 1523      802.936         1013
 1524      803.269          938
 1525      803.601          902
 1526      803.932          893
 1527      804.264          884
 1528      804.596          874
 1529      804.927          868
 1530      805.258          873
 1531      805.589          877
 1532       805.92          858
 1533      806.251          855
 1534      806.582          860
 1535      806.912          886
 1536      807.242          960
 1537      807.573         1107
 1538      807.903         1367
 1539      808.232         1774
 1540      808.562         2363
 1541      808.892         3137
 1542      809.221         3925
 1543      809.551         4548
 1544       809.88         4972
 1545      810.209         5093
 1546      810.538         4749
 1547      810.866         4088
 1548      811.195         3309
 1549      811.523         2551
 1550      811.851         1942
 1551       812.18         1529
 1552      812.507         1279
 1553      812.835         1125
 1554      813.163         1033
 1555       813.49          971
 1556      813.818          923
 1557      814.145          897
 1558      814.472          874
 1559      814.799          855
 1560      815.126          857
 1561      815.452          868
 1562      815.779          866
 1563      816.105          857
 1564      816.431          859
 1565      816.757          859
 1566      817.083          845
 1567      817.409          834
 1568      817.734          836
 1569       818.06          841
 1570      818.385          840
 1571       818.71          838
 1572      819.035          836
 1573       819.36          827
 1574      819.685          823
 1575      820.009          827
 1576      820.333          826
 1577      820.658          827
 1578      820.982          824
 1579      821.305          826
 1580      821.629          830
 1581      821.953          836
 1582      822.276          842
 1583        822.6          832
 1584      822.923          843
 1585      823.246          881
 1586      823.569          942
 1587      823.891         1051
 1588      824.214         1176
 1589      824.536         1269
 1590      824.858         1315
 1591       825.18         1301
 1592      825.502         1230
 1593      825.824         1127
 1594      826.146         1027
 1595      826.467          957
 1596      826.789          919
 1597       827.11          886
 1598      827.431          858
 1599      827.752          841
 1600      828.072          844
 1601      828.393          855
 1602      828.713          845
 1603      829.034          834
 1604      829.354          827
 1605      829.674          820
 1606      829.993          818
 1607      830.313          822
 1608      830.633          832
 1609      830.952          832
 1610      831.271          827
 1611       831.59          821
 1612      831.909          814
 1613      832.228          819
 1614      832.546          821
 1615      832.865          818
 1616      833.183          822
 1617      833.501          821
 1618      833.819          812
 1619      834.137          799
 1620      834.455          800
 1621      834.772          808
 1622      835.089          807
 1623      835.407          812
 1624      835.724          811
 1625       836.04          808
 1626      836.357          804
 1627      836.674          808
 1628       836.99          816
 1629      837.306          938
 1630      837.623         1052
 1631      837.939         1031
 1632      838.254         1046
 1633       838.57         1074
 1634      838.886         1106
 1635      839.201         1127
 1636      839.516         1156
 1637      839.831         1176
 1638      840.146         1175
 1639      840.461         1169
 1640      840.775         1146
 1641       841.09         1094
 1642      841.404         1049
 1643      841.718         1008
 1644      842.032          964
 1645      842.346          922
 1646      842.659          886
 1647      842.973          859
 1648      843.286          833
 1649      843.599          831
 1650      843.912          839
 1651      844.225          833
 1652      844.538          821
 1653      844.851          815
 1654      845.163          823
 1655      845.475          830
 1656      845.787          826
 1657      846.099          822
 1658      846.411          827
 1659      846.723          821
 1660      847.034          825
 1661      847.345          829
 1662      847.657          831
 1663      847.968          829
 1664      848.278          810
 1665      848.589          810
 1666        848.9          814
 1667       849.21          812
 1668       849.52          805
 1669       849.83          797
 1670       850.14          802
 1671       850.45          804
 1672      850.759          802
 1673      851.069          789
 1674      851.378          791
 1675      851.687          808
 1676      851.996          819
 1677      852.305          820
 1678      852.614          819
 1679      852.922          824
 1680       853.23          829
 1681      853.539          825
 1682      853.847          818
 1683      854.154          803
 1684      854.462          795
 1685       854.77          799
 1686      855.077          798
 1687      855.384          804
 1688      855.691          804
 1689      855.998          804
 1690      856.305          803
 1691      856.612          801
 1692      856.918          806
 1693      857.224          810
 1694       857.53          811
 1695      857.836          816
 1696      858.142          819
 1697      858.448          807
 1698      858.753          802
 1699      859.059          810
 1700      859.364          811
 1701      859.669          801
 1702      859.974          803
 1703      860.278          818
 1704      860.583          828
 1705      860.887          822
 1706      861.192          828
 1707      861.496          827
 1708        861.8          819
 1709      862.103          812
 1710      862.407          800
 1711       862.71          801
 1712      863.014          814
 1713      863.317          812
 1714       863.62          813
 1715      863.922          812
 1716      864.225          805
 1717      864.527          804
 1718       864.83          807
 1719      865.132          806
 1720      865.434          811
 1721      865.736          809
 1722      866.037          807
 1723      866.339          814
 1724       866.64          810
 1725      866.941          819
 1726      867.242          815
 1727      867.543          810
 1728      867.844          814
 1729      868.145          812
 1730      868.445          817
 1731      868.745          820
 1732      869.045          819
 1733      869.345          809
 1734      869.645          800
 1735      869.944          799
 1736      870.244          798
 1737      870.543          807
 1738      870.842          819
 1739      871.141          818
 1740       871.44          810
 1741      871.739          803
 1742      872.037          810
 1743      872.335          807
 1744      872.634          802
 1745      872.931          808
 1746      873.229          801
 1747      873.527          793
 1748      873.824          799
 1749      874.122          800
 1750      874.419          794
 1751      874.716          795
 1752      875.013          795
 1753      875.309          790
 1754      875.606          791
 1755      875.902          801
 1756      876.199          809
 1757      876.495          804
 1758       876.79          809
 1759      877.086          821
 1760      877.382          822
 1761      877.677          816
 1762      877.972          815
 1763      878.267          815
 1764      878.562          812
 1765      878.857          808
 1766      879.152          808
 1767      879.446          799
 1768       879.74          794
 1769      880.034          789
 1770      880.328          785
 1771      880.622          785
 1772      880.916          800
 1773      881.209          805
 1774      881.502          799
 1775      881.795          804
 1776      882.088          809
 1777      882.381          800
 1778      882.674          794
 1779      882.966          799
 1780      883.258          815
 1781      883.551          826
 1782      883.843          827
 1783      884.134          830
 1784      884.426          832
 1785      884.717          827
 1786      885.009          812
 1787        885.3          810
 1788      885.591          810
 1789      885.882          804
 1790      886.172          800
 1791      886.463          807
 1792      886.753          810
 1793      887.043          804
 1794      887.333          817
 1795      887.623          827
 1796      887.913          816
 1797      888.202          814
 1798      888.492          828
 1799      888.781          827
 1800       889.07          810
 1801      889.359          817
 1802      889.647          824
 1803      889.936          817
 1804      890.224          816
 1805      890.512          840
 1806        890.8          847
 1807      891.088          836
 1808      891.376          833
 1809      891.663          824
 1810      891.951          824
 1811      892.238          827
 1812      892.525          829
 1813      892.812          816
 1814      893.099          817
 1815      893.385          826
 1816      893.671          826
 1817      893.958          823
 1818      894.244          825
 1819       894.53          822
 1820      894.815          820
 1821      895.101          819
 1822      895.386          816
 1823      895.671          812
 1824      895.956          813
 1825      896.241          812
 1826      896.526          812
 1827       896.81          809
 1828      897.095          814
 1829      897.379          821
 1830      897.663          818
 1831      897.947          819
 1832      898.231          814
 1833      898.514          809
 1834      898.798          803
 1835      899.081          801
 1836      899.364          799
 1837      899.647          796
 1838      899.929          797
 1839      900.212          801
 1840      900.494          805
 1841      900.776          806
 1842      901.058          809
 1843       901.34          806
 1844      901.622          807
 1845      901.904          802
 1846      902.185          799
 1847      902.466          795
 1848      902.747          798
 1849      903.028          807
 1850      903.309          813
 1851      903.589          807
 1852       903.87          797
 1853       904.15          802
 1854       904.43          807
 1855       904.71          813
 1856      904.989          811
 1857      905.269          808
 1858      905.548          814
 1859      905.827          818
 1860      906.106          815
 1861      906.385          813
 1862      906.664          832
 1863      906.942          841
 1864      907.221          826
 1865      907.499          808
 1866      907.777          798
 1867      908.055          808
 1868      908.332          811
 1869       908.61          811
 1870      908.887          817
 1871      909.164          808
 1872      909.441          800
 1873      909.718          800
 1874      909.995          801
 1875      910.271          806
 1876      910.548          811
 1877      910.824          809
 1878        911.1          805
 1879      911.375          811
 1880      911.651          810
 1881      911.927          807
 1882      912.202          807
 1883      912.477          807
 1884      912.752          807
 1885      913.027          801
 1886      913.301          799
 1887      913.576          806
 1888       913.85          818
 1889      914.124          810
 1890      914.398          804
 1891      914.672          797
 1892      914.945          794
 1893      915.219          789
 1894      915.492          789
 1895      915.765          809
 1896      916.038          816
 1897      916.311          810
 1898      916.583          807
 1899      916.856          800
 1900      917.128          801
 1901        917.4          811
 1902      917.672          814
 1903      917.944          813
 1904      918.215          817
 1905      918.486          811
 1906      918.758          810
 1907      919.029          817
 1908      919.299          818
 1909       919.57          814
 1910      919.841          813
 1911      920.111          804
 1912      920.381          801
 1913      920.651          806
 1914      920.921          808
 1915      921.191          812
 1916       921.46          806
 1917      921.729          804
 1918      921.999          814
 1919      922.268          813
 1920      922.536          806
 1921      922.805          807
 1922      923.073          807
 1923      923.342          809
 1924       923.61          811
 1925      923.878          808
 1926      924.145          809
 1927      924.413          809
 1928       924.68          807
 1929      924.948          802
 1930      925.215          802
 1931      925.482          808
 1932      925.748          805
 1933      926.015          802
 1934      926.281          804
 1935      926.547          808
 1936      926.813          814
 1937      927.079          825
 1938      927.345          836
 1939       927.61          837
 1940      927.876          825
 1941      928.141          812
 1942      928.406          805
 1943      928.671          803
 1944      928.935          801
 1945        929.2          793
 1946      929.464          793
 1947      929.728          807
 1948      929.992          818
 1949      930.256          813
 1950       930.52          816
 1951      930.783          812
 1952      931.046          809
 1953      931.309          812
 1954      931.572          817
 1955      931.835          813
 1956      932.097          802
 1957       932.36          801
 1958      932.622          803
 1959      932.884          803
 1960      933.146          804
 1961      933.408          811
 1962      933.669          816
 1963       933.93          809
 1964      934.192          811
 1965      934.453          813
 1966      934.713          804
 1967      934.974          794
 1968      935.234          800
 1969      935.495          809
 1970      935.755          812
 1971      936.015          808
 1972      936.274          805
 1973      936.534          805
 1974      936.793          813
 1975      937.053          816
 1976      937.312          807
 1977      937.571          802
 1978      937.829          806
 1979      938.088          815
 1980      938.346          816
 1981      938.604          814
 1982      938.862          818
 1983       939.12          811
 1984      939.378          810
 1985      939.635          808
 1986      939.893          808
 1987       940.15          817
 1988      940.407          823
 1989      940.663          825
 1990       940.92          827
 1991      941.176          814
 1992      941.433          809
 1993      941.689          809
 1994      941.944          812
 1995        942.2          825
 1996      942.456          827
 1997      942.711          812
 1998      942.966          810
 1999      943.221          809
 2000      943.476          806
 2001      943.731          804
 2002      943.985          807
 2003      944.239          806
 2004      944.493          806
 2005      944.747          809
 2006      945.001          807
 2007      945.255          808
 2008      945.508          804
 2009      945.761          796
 2010      946.014          796
 2011      946.267          802
 2012       946.52          801
 2013      946.772          802
 2014      947.025          803
 2015      947.277          814
 2016      947.529          828
 2017      947.781          818
 2018      948.032          809
 2019      948.284          807
 2020      948.535          811
 2021      948.786          807
 2022      949.037          800
 2023      949.288          799
 2024      949.538          803
 2025      949.789          795
 2026      950.039          786
 2027      950.289          791
 2028      950.539          795
 2029      950.788          804
 2030      951.038          809
 2031      951.287          811
 2032      951.536          813
 2033      951.785          809
 2034      952.034          806
 2035      952.282          806
 2036      952.531          809
 2037      952.779          817
 2038      953.027          821
 2039      953.275          811
 2040      953.523          803
 2041       953.77          801
 2042      954.017          807
 2043      954.264          816
 2044      954.511          811
 2045      954.758          807
 2046      955.005          807
 2047      955.251          799
