scansci Spectrometer Data File
--- Measurement Setting ---
Type: Sample Spectrum
Date: Wed May 26 15:51:20 2021
User: (Reserved by scansci)
Serial: (Reserved by scansci)
Channel: No. 11
Integration Time: 62
Average: 1
Boxcar: 0
Electrical Dark: No-corrected
Time Normalize: (Reserved by scansci)
Dual-beam: (Reserved by scansci)
Reference Ch: (Reserved by scansci)
--- Measurement Data ---
Pixel   Wavelength   Intensity
    0        344.4          963
    1      344.867          963
    2      345.334          966
    3      345.801          956
    4      346.268          946
    5      346.735          949
    6      347.202          948
    7      347.669          949
    8      348.135          954
    9      348.602          963
   10      349.068          962
   11      349.535          955
   12      350.001          957
   13      350.467          957
   14      350.933          954
   15      351.399          953
   16      351.866          957
   17      352.331          961
   18      352.797          954
   19      353.263          952
   20      353.729          959
   21      354.194          957
   22       354.66          951
   23      355.126          953
   24      355.591          957
   25      356.056          958
   26      356.522          957
   27      356.987          957
   28      357.452          953
   29      357.917          953
   30      358.382          957
   31      358.847          959
   32      359.312          958
   33      359.776          959
   34      360.241          960
   35      360.706          956
   36       361.17          954
   37      361.634          961
   38      362.099          965
   39      362.563          962
   40      363.027          956
   41      363.491          956
   42      363.955          964
   43      364.419          969
   44      364.883          967
   45      365.347          963
   46      365.811          966
   47      366.274          970
   48      366.738          970
   49      367.201          969
   50      367.665          973
   51      368.128          980
   52      368.592          981
   53      369.055          979
   54      369.518          976
   55      369.981          970
   56      370.444          965
   57      370.907          968
   58       371.37          968
   59      371.832          965
   60      372.295          964
   61      372.757          966
   62       373.22          965
   63      373.682          963
   64      374.145          958
   65      374.607          951
   66      375.069          950
   67      375.531          952
   68      375.993          949
   69      376.455          947
   70      376.917          949
   71      377.379          952
   72      377.841          960
   73      378.302          966
   74      378.764          964
   75      379.225          964
   76      379.687          964
   77      380.148          964
   78      380.609          960
   79      381.071          956
   80      381.532          959
   81      381.993          957
   82      382.454          952
   83      382.915          954
   84      383.375          962
   85      383.836          958
   86      384.297          963
   87      384.757          964
   88      385.218          961
   89      385.678          959
   90      386.138          959
   91      386.599          959
   92      387.059          959
   93      387.519          959
   94      387.979          958
   95      388.439          955
   96      388.899          954
   97      389.358          960
   98      389.818          965
   99      390.278          963
  100      390.737          960
  101      391.197          961
  102      391.656          961
  103      392.115          964
  104      392.575          965
  105      393.034          963
  106      393.493          957
  107      393.952          949
  108      394.411          947
  109       394.87          948
  110      395.328          945
  111      395.787          948
  112      396.246          954
  113      396.704          952
  114      397.163          948
  115      397.621          948
  116      398.079          945
  117      398.537          949
  118      398.995          957
  119      399.454          956
  120      399.911          951
  121      400.369          951
  122      400.827          950
  123      401.285          948
  124      401.743          949
  125        402.2          955
  126      402.658          962
  127      403.115          961
  128      403.572          962
  129       404.03          962
  130      404.487          958
  131      404.944          961
  132      405.401          966
  133      405.858          970
  134      406.315          969
  135      406.771          964
  136      407.228          962
  137      407.685          960
  138      408.141          956
  139      408.598          952
  140      409.054          948
  141       409.51          946
  142      409.967          953
  143      410.423          955
  144      410.879          960
  145      411.335          958
  146      411.791          955
  147      412.246          958
  148      412.702          959
  149      413.158          954
  150      413.613          954
  151      414.069          956
  152      414.524          959
  153       414.98          960
  154      415.435          961
  155       415.89          966
  156      416.345          965
  157        416.8          960
  158      417.255          959
  159       417.71          959
  160      418.165          958
  161      418.619          961
  162      419.074          967
  163      419.529          970
  164      419.983          967
  165      420.437          963
  166      420.892          966
  167      421.346          968
  168        421.8          971
  169      422.254          968
  170      422.708          970
  171      423.162          973
  172      423.616          972
  173       424.07          966
  174      424.523          955
  175      424.977          962
  176       425.43          968
  177      425.884          961
  178      426.337          962
  179       426.79          966
  180      427.243          964
  181      427.697          963
  182       428.15          967
  183      428.602          955
  184      429.055          947
  185      429.508          954
  186      429.961          955
  187      430.413          957
  188      430.866          964
  189      431.318          968
  190      431.771          970
  191      432.223          966
  192      432.675          968
  193      433.127          967
  194      433.579          965
  195      434.031          972
  196      434.483          972
  197      434.935          970
  198      435.387          968
  199      435.838          966
  200       436.29          961
  201      436.741          959
  202      437.193          955
  203      437.644          950
  204      438.095          954
  205      438.546          958
  206      438.997          957
  207      439.448          959
  208      439.899          959
  209       440.35          956
  210      440.801          959
  211      441.251          959
  212      441.702          955
  213      442.152          952
  214      442.603          958
  215      443.053          964
  216      443.503          965
  217      443.954          965
  218      444.404          964
  219      444.854          954
  220      445.304          948
  221      445.753          949
  222      446.203          949
  223      446.653          950
  224      447.102          949
  225      447.552          948
  226      448.001          948
  227      448.451          953
  228        448.9          956
  229      449.349          957
  230      449.798          958
  231      450.247          957
  232      450.696          963
  233      451.145          967
  234      451.594          968
  235      452.042          968
  236      452.491          971
  237      452.939          973
  238      453.388          973
  239      453.836          971
  240      454.285          970
  241      454.733          966
  242      455.181          958
  243      455.629          953
  244      456.077          958
  245      456.525          963
  246      456.972          959
  247       457.42          958
  248      457.868          964
  249      458.315          970
  250      458.763          965
  251       459.21          963
  252      459.657          969
  253      460.104          965
  254      460.552          956
  255      460.999          955
  256      461.446          956
  257      461.892          955
  258      462.339          959
  259      462.786          967
  260      463.233          966
  261      463.679          969
  262      464.125          971
  263      464.572          967
  264      465.018          964
  265      465.464          963
  266       465.91          970
  267      466.356          974
  268      466.802          967
  269      467.248          962
  270      467.694          962
  271       468.14          954
  272      468.585          952
  273      469.031          954
  274      469.476          948
  275      469.922          949
  276      470.367          945
  277      470.812          939
  278      471.257          943
  279      471.702          951
  280      472.147          955
  281      472.592          958
  282      473.037          960
  283      473.482          958
  284      473.926          952
  285      474.371          955
  286      474.815          963
  287      475.259          958
  288      475.704          953
  289      476.148          957
  290      476.592          960
  291      477.036          967
  292       477.48          955
  293      477.924          959
  294      478.368          969
  295      478.811          971
  296      479.255          969
  297      479.698          965
  298      480.142          959
  299      480.585          949
  300      481.028          948
  301      481.472          960
  302      481.915          972
  303      482.358          971
  304      482.801          968
  305      483.244          965
  306      483.686          960
  307      484.129          958
  308      484.572          954
  309      485.014          957
  310      485.456          973
  311      485.899          969
  312      486.341          961
  313      486.783          957
  314      487.225          957
  315      487.667          960
  316      488.109          961
  317      488.551          961
  318      488.993          960
  319      489.434          954
  320      489.876          948
  321      490.318          948
  322      490.759          950
  323        491.2          950
  324      491.641          954
  325      492.083          961
  326      492.524          967
  327      492.965          967
  328      493.406          965
  329      493.846          963
  330      494.287          963
  331      494.728          958
  332      495.168          956
  333      495.609          955
  334      496.049          950
  335      496.489          951
  336       496.93          953
  337       497.37          957
  338       497.81          960
  339       498.25          957
  340       498.69          955
  341      499.129          956
  342      499.569          965
  343      500.009          973
  344      500.448          971
  345      500.888          966
  346      501.327          964
  347      501.766          964
  348      502.206          972
  349      502.645          975
  350      503.084          975
  351      503.523          974
  352      503.961          968
  353        504.4          963
  354      504.839          960
  355      505.277          957
  356      505.716          953
  357      506.154          948
  358      506.593          955
  359      507.031          964
  360      507.469          969
  361      507.907          963
  362      508.345          957
  363      508.783          955
  364      509.221          954
  365      509.659          955
  366      510.096          960
  367      510.534          959
  368      510.971          961
  369      511.409          963
  370      511.846          963
  371      512.283          959
  372       512.72          961
  373      513.157          963
  374      513.594          964
  375      514.031          968
  376      514.468          971
  377      514.905          977
  378      515.341          973
  379      515.778          963
  380      516.214          959
  381       516.65          962
  382      517.087          961
  383      517.523          962
  384      517.959          967
  385      518.395          966
  386      518.831          969
  387      519.267          970
  388      519.702          973
  389      520.138          976
  390      520.574          971
  391      521.009          963
  392      521.444          957
  393       521.88          964
  394      522.315          968
  395       522.75          970
  396      523.185          972
  397       523.62          970
  398      524.055          968
  399       524.49          968
  400      524.924          968
  401      525.359          964
  402      525.794          962
  403      526.228          966
  404      526.662          966
  405      527.097          967
  406      527.531          969
  407      527.965          973
  408      528.399          975
  409      528.833          971
  410      529.267          967
  411        529.7          973
  412      530.134          976
  413      530.568          974
  414      531.001          965
  415      531.434          963
  416      531.868          967
  417      532.301          969
  418      532.734          965
  419      533.167          965
  420        533.6          966
  421      534.033          964
  422      534.466          965
  423      534.898          971
  424      535.331          976
  425      535.763          979
  426      536.196          986
  427      536.628          990
  428       537.06          985
  429      537.493          976
  430      537.925          975
  431      538.357          984
  432      538.788          989
  433       539.22          988
  434      539.652          993
  435      540.084         1000
  436      540.515         1010
  437      540.947         1020
  438      541.378         1026
  439      541.809         1024
  440       542.24         1025
  441      542.672         1031
  442      543.103         1033
  443      543.533         1043
  444      543.964         1056
  445      544.395         1100
  446      544.826         1343
  447      545.256         2163
  448      545.687         3302
  449      546.117         4125
  450      546.547         4344
  451      546.978         3731
  452      547.408         2789
  453      547.838         2110
  454      548.268         1689
  455      548.698         1440
  456      549.127         1288
  457      549.557         1195
  458      549.987         1148
  459      550.416         1105
  460      550.846         1080
  461      551.275         1065
  462      551.704         1053
  463      552.133         1039
  464      552.562         1033
  465      552.991         1039
  466       553.42         1029
  467      553.849         1018
  468      554.278         1016
  469      554.706         1010
  470      555.135         1009
  471      555.563         1016
  472      555.991         1022
  473       556.42         1013
  474      556.848         1003
  475      557.276          999
  476      557.704         1002
  477      558.132         1000
  478       558.56          994
  479      558.987          989
  480      559.415          988
  481      559.843          989
  482       560.27          987
  483      560.697          990
  484      561.125          996
  485      561.552         1001
  486      561.979          999
  487      562.406          996
  488      562.833          994
  489       563.26          993
  490      563.686          999
  491      564.113          997
  492       564.54          990
  493      564.966          994
  494      565.392          993
  495      565.819          990
  496      566.245          984
  497      566.671          981
  498      567.097          976
  499      567.523          966
  500      567.949          967
  501      568.374          973
  502        568.8          979
  503      569.226          977
  504      569.651          983
  505      570.077          989
  506      570.502          983
  507      570.927          980
  508      571.352          980
  509      571.777          977
  510      572.202          978
  511      572.627          970
  512      573.052          970
  513      573.476          975
  514      573.901          983
  515      574.325          993
  516       574.75          992
  517      575.174          997
  518      575.598         1024
  519      576.022         1137
  520      576.446         1310
  521       576.87         1440
  522      577.294         1512
  523      577.718         1491
  524      578.142         1456
  525      578.565         1509
  526      578.989         1581
  527      579.412         1602
  528      579.835         1509
  529      580.259         1338
  530      580.682         1200
  531      581.105         1119
  532      581.528         1066
  533      581.951         1033
  534      582.373         1020
  535      582.796         1009
  536      583.219          995
  537      583.641          988
  538      584.063          995
  539      584.486          997
  540      584.908          993
  541       585.33          992
  542      585.752          994
  543      586.174          985
  544      586.596          978
  545      587.018          981
  546      587.439          983
  547      587.861          980
  548      588.282          980
  549      588.704          979
  550      589.125          977
  551      589.546          981
  552      589.967          983
  553      590.388          986
  554      590.809          993
  555       591.23          992
  556      591.651          991
  557      592.071          989
  558      592.492          988
  559      592.912          986
  560      593.333          989
  561      593.753          985
  562      594.173          980
  563      594.593          970
  564      595.013          967
  565      595.433          972
  566      595.853          971
  567      596.273          971
  568      596.693          975
  569      597.112          981
  570      597.532          983
  571      597.951          984
  572       598.37          984
  573      598.789          981
  574      599.208          977
  575      599.627          980
  576      600.046          977
  577      600.465          975
  578      600.884          974
  579      601.303          970
  580      601.721          971
  581      602.139          969
  582      602.558          967
  583      602.976          971
  584      603.394          978
  585      603.812          982
  586       604.23          978
  587      604.648          978
  588      605.066          982
  589      605.484          977
  590      605.901          976
  591      606.319          985
  592      606.736          984
  593      607.154          970
  594      607.571          969
  595      607.988          974
  596      608.405          973
  597      608.822          968
  598      609.239          967
  599      609.656          974
  600      610.072          984
  601      610.489          992
  602      610.905          992
  603      611.322          986
  604      611.738          988
  605      612.154          988
  606       612.57          988
  607      612.986          983
  608      613.402          978
  609      613.818          979
  610      614.234          982
  611       614.65          984
  612      615.065          980
  613      615.481          978
  614      615.896          975
  615      616.311          971
  616      616.727          970
  617      617.142          971
  618      617.557          978
  619      617.972          984
  620      618.386          981
  621      618.801          973
  622      619.216          965
  623       619.63          965
  624      620.045          973
  625      620.459          980
  626      620.873          982
  627      621.287          977
  628      621.702          966
  629      622.116          962
  630      622.529          963
  631      622.943          970
  632      623.357          980
  633      623.771          979
  634      624.184          974
  635      624.597          972
  636      625.011          975
  637      625.424          979
  638      625.837          985
  639       626.25          981
  640      626.663          971
  641      627.076          970
  642      627.489          970
  643      627.901          962
  644      628.314          963
  645      628.726          967
  646      629.139          966
  647      629.551          964
  648      629.963          966
  649      630.375          968
  650      630.787          972
  651      631.199          969
  652      631.611          969
  653      632.023          967
  654      632.434          968
  655      632.846          972
  656      633.257          974
  657      633.669          974
  658       634.08          976
  659      634.491          984
  660      634.902          991
  661      635.313          992
  662      635.724          983
  663      636.135          976
  664      636.545          977
  665      636.956          973
  666      637.366          966
  667      637.777          972
  668      638.187          981
  669      638.597          979
  670      639.007          971
  671      639.417          972
  672      639.827          974
  673      640.237          969
  674      640.647          968
  675      641.056          972
  676      641.466          983
  677      641.875          988
  678      642.285          989
  679      642.694          986
  680      643.103          977
  681      643.512          976
  682      643.921          980
  683       644.33          980
  684      644.739          976
  685      645.148          971
  686      645.556          962
  687      645.965          959
  688      646.373          958
  689      646.781          957
  690      647.189          963
  691      647.598          964
  692      648.006          962
  693      648.414          967
  694      648.821          967
  695      649.229          964
  696      649.637          961
  697      650.044          957
  698      650.452          960
  699      650.859          960
  700      651.266          959
  701      651.673          961
  702       652.08          966
  703      652.487          969
  704      652.894          965
  705      653.301          964
  706      653.708          966
  707      654.114          968
  708      654.521          975
  709      654.927          977
  710      655.333          977
  711       655.74          978
  712      656.146          977
  713      656.552          975
  714      656.958          978
  715      657.363          977
  716      657.769          971
  717      658.175          971
  718       658.58          967
  719      658.986          964
  720      659.391          965
  721      659.796          965
  722      660.201          964
  723      660.606          963
  724      661.011          964
  725      661.416          967
  726      661.821          962
  727      662.225          954
  728       662.63          954
  729      663.034          954
  730      663.439          960
  731      663.843          967
  732      664.247          972
  733      664.651          972
  734      665.055          972
  735      665.459          970
  736      665.863          974
  737      666.267          979
  738       666.67          980
  739      667.074          978
  740      667.477          983
  741       667.88          992
  742      668.283          998
  743      668.687          985
  744       669.09          963
  745      669.492          959
  746      669.895          958
  747      670.298          965
  748      670.701          973
  749      671.103          971
  750      671.505          972
  751      671.908          971
  752       672.31          971
  753      672.712          970
  754      673.114          967
  755      673.516          969
  756      673.918          967
  757       674.32          971
  758      674.721          983
  759      675.123          991
  760      675.524          999
  761      675.926         1001
  762      676.327          997
  763      676.728          989
  764      677.129          980
  765       677.53          978
  766      677.931          976
  767      678.332          975
  768      678.732          971
  769      679.133          969
  770      679.533          972
  771      679.934          969
  772      680.334          966
  773      680.734          965
  774      681.134          970
  775      681.534          973
  776      681.934          975
  777      682.334          978
  778      682.733          978
  779      683.133          976
  780      683.532          978
  781      683.932          972
  782      684.331          971
  783       684.73          973
  784      685.129          979
  785      685.528          980
  786      685.927          984
  787      686.326          987
  788      686.725          998
  789      687.123          997
  790      687.522         1005
  791       687.92         1003
  792      688.319          990
  793      688.717          988
  794      689.115          989
  795      689.513          995
  796      689.911         1003
  797      690.309         1005
  798      690.706         1010
  799      691.104         1013
  800      691.501         1009
  801      691.899          999
  802      692.296          998
  803      692.693         1009
  804       693.09         1016
  805      693.488         1022
  806      693.884         1033
  807      694.281         1044
  808      694.678         1076
  809      695.075         1240
  810      695.471         1749
  811      695.868         2558
  812      696.264         3334
  813       696.66         3793
  814      697.056         3704
  815      697.452         3154
  816      697.848         2467
  817      698.244         1907
  818       698.64         1549
  819      699.035         1334
  820      699.431         1207
  821      699.826         1132
  822      700.222         1088
  823      700.617         1057
  824      701.012         1040
  825      701.407         1032
  826      701.802         1025
  827      702.197         1026
  828      702.592         1033
  829      702.986         1037
  830      703.381         1041
  831      703.775         1046
  832       704.17         1040
  833      704.564         1040
  834      704.958         1072
  835      705.352         1201
  836      705.746         1527
  837       706.14         1964
  838      706.533         2340
  839      706.927         2537
  840      707.321         2433
  841      707.714         2092
  842      708.107         1726
  843      708.501         1457
  844      708.894         1282
  845      709.287         1170
  846       709.68         1107
  847      710.073         1067
  848      710.465         1040
  849      710.858         1025
  850      711.251         1020
  851      711.643         1011
  852      712.035         1004
  853      712.428         1000
  854       712.82          993
  855      713.212         1003
  856      713.604         1039
  857      713.995         1092
  858      714.387         1148
  859      714.779         1183
  860       715.17         1182
  861      715.562         1148
  862      715.953         1092
  863      716.344         1049
  864      716.735         1018
  865      717.127          999
  866      717.517          991
  867      717.908          987
  868      718.299          983
  869       718.69          982
  870       719.08          985
  871      719.471          981
  872      719.861          984
  873      720.251          991
  874      720.641          987
  875      721.031          984
  876      721.421          987
  877      721.811          987
  878      722.201          990
  879       722.59          987
  880       722.98          978
  881      723.369          976
  882      723.759          980
  883      724.148          984
  884      724.537          988
  885      724.926          993
  886      725.315         1002
  887      725.704         1036
  888      726.092         1129
  889      726.481         1288
  890       726.87         1450
  891      727.258         1557
  892      727.646         1587
  893      728.034         1511
  894      728.423         1368
  895      728.811         1227
  896      729.198         1134
  897      729.586         1082
  898      729.974         1058
  899      730.362         1040
  900      730.749         1021
  901      731.136         1010
  902      731.524         1001
  903      731.911         1002
  904      732.298         1004
  905      732.685         1000
  906      733.072         1001
  907      733.459         1004
  908      733.845         1007
  909      734.232         1015
  910      734.618         1020
  911      735.005         1026
  912      735.391         1035
  913      735.777         1046
  914      736.163         1068
  915      736.549         1132
  916      736.935         1334
  917      737.321         1817
  918      737.706         2532
  919      738.092         3235
  920      738.477         3676
  921      738.863         3672
  922      739.248         3232
  923      739.633         2587
  924      740.018         2020
  925      740.403         1634
  926      740.788         1395
  927      741.173         1253
  928      741.557         1169
  929      741.942         1115
  930      742.326         1086
  931      742.711         1076
  932      743.095         1068
  933      743.479         1062
  934      743.863         1056
  935      744.247         1048
  936      744.631         1048
  937      745.015         1049
  938      745.398         1049
  939      745.782         1047
  940      746.165         1050
  941      746.548         1061
  942      746.932         1061
  943      747.315         1063
  944      747.698         1077
  945      748.081         1095
  946      748.463         1165
  947      748.846         1361
  948      749.229         1812
  949      749.611         2585
  950      749.993         3596
  951      750.376         4654
  952      750.758         5544
  953       751.14         5961
  954      751.522         5766
  955      751.904         5133
  956      752.285         4246
  957      752.667         3308
  958      753.049         2513
  959       753.43         1956
  960      753.811         1614
  961      754.193         1409
  962      754.574         1282
  963      754.955         1211
  964      755.336         1175
  965      755.717         1147
  966      756.097         1130
  967      756.478         1120
  968      756.858         1111
  969      757.239         1105
  970      757.619         1105
  971      757.999         1105
  972      758.379         1103
  973      758.759         1110
  974      759.139         1126
  975      759.519         1138
  976      759.899         1152
  977      760.278         1171
  978      760.658         1192
  979      761.037         1244
  980      761.417         1446
  981      761.796         2049
  982      762.175         3480
  983      762.554         6166
  984      762.933         9724
  985      763.311        12860
  986       763.69        14485
  987      764.068        14058
  988      764.447        11796
  989      764.825         8778
  990      765.203         6086
  991      765.582         4195
  992       765.96         3015
  993      766.338         2296
  994      766.715         1847
  995      767.093         1586
  996      767.471         1432
  997      767.848         1325
  998      768.226         1252
  999      768.603         1207
 1000       768.98         1187
 1001      769.357         1175
 1002      769.734         1171
 1003      770.111         1189
 1004      770.488         1297
 1005      770.864         1584
 1006      771.241         2171
 1007      771.617         3135
 1008      771.994         4239
 1009       772.37         5076
 1010      772.746         5398
 1011      773.122         5077
 1012      773.498         4237
 1013      773.874         3270
 1014       774.25         2472
 1015      774.625         1922
 1016      775.001         1583
 1017      775.376         1377
 1018      775.751         1253
 1019      776.127         1177
 1020      776.502         1135
 1021      776.877         1108
 1022      777.252         1089
 1023      777.626         1076
 1024      778.001         1061
 1025      778.375         1057
 1026       778.75         1050
 1027      779.124         1041
 1028      779.499         1033
 1029      779.873         1020
 1030      780.247         1013
 1031      780.621         1013
 1032      780.994         1015
 1033      781.368         1016
 1034      781.742         1020
 1035      782.115         1019
 1036      782.489         1011
 1037      782.862         1007
 1038      783.235         1008
 1039      783.608         1005
 1040      783.981         1001
 1041      784.354         1004
 1042      784.727         1006
 1043        785.1         1002
 1044      785.472         1005
 1045      785.845         1007
 1046      786.217         1009
 1047      786.589         1016
 1048      786.961         1018
 1049      787.333         1017
 1050      787.705         1017
 1051      788.077         1016
 1052      788.449         1017
 1053       788.82         1015
 1054      789.192         1013
 1055      789.563         1011
 1056      789.934         1014
 1057      790.306         1025
 1058      790.677         1031
 1059      791.048         1033
 1060      791.419         1035
 1061      791.789         1044
 1062       792.16         1059
 1063       792.53         1102
 1064      792.901         1212
 1065      793.271         1425
 1066      793.641         1810
 1067      794.012         2454
 1068      794.382         3251
 1069      794.751         3948
 1070      795.121         4318
 1071      795.491         4220
 1072      795.861         3725
 1073       796.23         3039
 1074      796.599         2392
 1075      796.969         1906
 1076      797.338         1588
 1077      797.707         1397
 1078      798.076         1302
 1079      798.445         1260
 1080      798.813         1287
 1081      799.182         1433
 1082       799.55         1764
 1083      799.919         2349
 1084      800.287         3145
 1085      800.655         4114
 1086      801.023         5082
 1087      801.391         5684
 1088      801.759         5751
 1089      802.127         5343
 1090      802.495         4580
 1091      802.862         3652
 1092       803.23         2804
 1093      803.597         2168
 1094      803.964         1754
 1095      804.331         1505
 1096      804.698         1354
 1097      805.065         1261
 1098      805.432         1207
 1099      805.799         1176
 1100      806.165         1169
 1101      806.532         1164
 1102      806.898         1161
 1103      807.264         1173
 1104      807.631         1192
 1105      807.997         1236
 1106      808.363         1338
 1107      808.728         1538
 1108      809.094         1937
 1109       809.46         2737
 1110      809.825         4078
 1111      810.191         5858
 1112      810.556         7976
 1113      810.921        10411
 1114      811.286        12668
 1115      811.651        14016
 1116      812.016        14156
 1117      812.381        12974
 1118      812.745        10708
 1119       813.11         8062
 1120      813.474         5728
 1121      813.839         4008
 1122      814.203         2890
 1123      814.567         2210
 1124      814.931         1789
 1125      815.295         1529
 1126      815.659         1372
 1127      816.022         1273
 1128      816.386         1210
 1129      816.749         1163
 1130      817.113         1133
 1131      817.476         1118
 1132      817.839         1108
 1133      818.202         1100
 1134      818.565         1093
 1135      818.928         1082
 1136      819.291         1072
 1137      819.653         1064
 1138      820.016         1053
 1139      820.378         1056
 1140       820.74         1061
 1141      821.102         1050
 1142      821.464         1044
 1143      821.826         1046
 1144      822.188         1048
 1145       822.55         1041
 1146      822.912         1041
 1147      823.273         1045
 1148      823.634         1047
 1149      823.996         1068
 1150      824.357         1122
 1151      824.718         1214
 1152      825.079         1367
 1153       825.44         1612
 1154      825.801         1974
 1155      826.161         2424
 1156      826.522         2850
 1157      826.882         3145
 1158      827.242         3206
 1159      827.603         2990
 1160      827.963         2577
 1161      828.323         2121
 1162      828.682         1729
 1163      829.042         1452
 1164      829.402         1288
 1165      829.761         1187
 1166      830.121         1115
 1167       830.48         1079
 1168      830.839         1064
 1169      831.198         1050
 1170      831.557         1040
 1171      831.916         1032
 1172      832.275         1024
 1173      832.634         1020
 1174      832.992         1015
 1175      833.351         1013
 1176      833.709         1010
 1177      834.067         1010
 1178      834.425         1018
 1179      834.783         1015
 1180      835.141         1014
 1181      835.499         1017
 1182      835.857         1017
 1183      836.214         1021
 1184      836.572         1024
 1185      836.929         1032
 1186      837.286         1041
 1187      837.644         1048
 1188      838.001         1053
 1189      838.357         1081
 1190      838.714         1144
 1191      839.071         1250
 1192      839.428         1422
 1193      839.784         1693
 1194       840.14         2088
 1195      840.497         2663
 1196      840.853         3384
 1197      841.209         4121
 1198      841.565         4782
 1199       841.92         5313
 1200      842.276         5722
 1201      842.632         5978
 1202      842.987         6048
 1203      843.343         5879
 1204      843.698         5338
 1205      844.053         4453
 1206      844.408         3496
 1207      844.763         2671
 1208      845.118         2048
 1209      845.472         1646
 1210      845.827         1411
 1211      846.181         1266
 1212      846.536         1178
 1213       846.89         1122
 1214      847.244         1087
 1215      847.598         1067
 1216      847.952         1060
 1217      848.306         1054
 1218       848.66         1043
 1219      849.013         1037
 1220      849.367         1042
 1221       849.72         1061
 1222      850.073         1084
 1223      850.427         1125
 1224       850.78         1200
 1225      851.133         1290
 1226      851.485         1435
 1227      851.838         1638
 1228      852.191         1864
 1229      852.543         2091
 1230      852.896         2222
 1231      853.248         2221
 1232        853.6         2106
 1233      853.952         1893
 1234      854.304         1652
 1235      854.656         1442
 1236      855.007         1279
 1237      855.359         1167
 1238       855.71         1104
 1239      856.062         1073
 1240      856.413         1048
 1241      856.764         1031
 1242      857.115         1024
 1243      857.466         1017
 1244      857.817         1008
 1245      858.168         1000
 1246      858.518          997
 1247      858.869          991
 1248      859.219          988
 1249      859.569          996
 1250       859.92          997
 1251       860.27          992
 1252      860.619          989
 1253      860.969          988
 1254      861.319          987
 1255      861.669          980
 1256      862.018          976
 1257      862.367          976
 1258      862.717          974
 1259      863.066          982
 1260      863.415          990
 1261      863.764          992
 1262      864.112          989
 1263      864.461          991
 1264       864.81          994
 1265      865.158          996
 1266      865.507         1005
 1267      865.855         1020
 1268      866.203         1037
 1269      866.551         1053
 1270      866.899         1082
 1271      867.247         1110
 1272      867.594         1133
 1273      867.942         1146
 1274      868.289         1135
 1275      868.637         1110
 1276      868.984         1081
 1277      869.331         1045
 1278      869.678         1016
 1279      870.025          998
 1280      870.372          991
 1281      870.718          981
 1282      871.065          971
 1283      871.411          972
 1284      871.758          973
 1285      872.104          972
 1286       872.45          974
 1287      872.796          977
 1288      873.142          977
 1289      873.488          975
 1290      873.833          978
 1291      874.179          982
 1292      874.524          975
 1293      874.869          969
 1294      875.215          971
 1295       875.56          979
 1296      875.905          981
 1297       876.25          974
 1298      876.594          974
 1299      876.939          974
 1300      877.283          971
 1301      877.628          972
 1302      877.972          976
 1303      878.316          977
 1304       878.66          969
 1305      879.004          965
 1306      879.348          961
 1307      879.692          952
 1308      880.035          952
 1309      880.379          958
 1310      880.722          962
 1311      881.066          959
 1312      881.409          959
 1313      881.752          960
 1314      882.095          961
 1315      882.438          960
 1316       882.78          962
 1317      883.123          970
 1318      883.465          978
 1319      883.808          976
 1320       884.15          968
 1321      884.492          973
 1322      884.834          973
 1323      885.176          971
 1324      885.518          978
 1325      885.859          976
 1326      886.201          966
 1327      886.542          961
 1328      886.884          962
 1329      887.225          962
 1330      887.566          959
 1331      887.907          960
 1332      888.248          958
 1333      888.589          960
 1334      888.929          968
 1335       889.27          973
 1336       889.61          972
 1337      889.951          975
 1338      890.291          978
 1339      890.631          976
 1340      890.971          975
 1341      891.311          970
 1342       891.65          963
 1343       891.99          960
 1344      892.329          958
 1345      892.669          960
 1346      893.008          967
 1347      893.347          973
 1348      893.686          978
 1349      894.025          977
 1350      894.364          971
 1351      894.703          971
 1352      895.041          975
 1353       895.38          968
 1354      895.718          963
 1355      896.056          967
 1356      896.395          971
 1357      896.733          970
 1358      897.071          964
 1359      897.408          964
 1360      897.746          970
 1361      898.084          972
 1362      898.421          974
 1363      898.758          970
 1364      899.095          967
 1365      899.433          964
 1366       899.77          967
 1367      900.106          969
 1368      900.443          973
 1369       900.78          972
 1370      901.116          964
 1371      901.453          967
 1372      901.789          966
 1373      902.125          958
 1374      902.461          959
 1375      902.797          965
 1376      903.133          968
 1377      903.469          974
 1378      903.804          977
 1379       904.14          974
 1380      904.475          974
 1381       904.81          973
 1382      905.146          973
 1383      905.481          976
 1384      905.815          987
 1385       906.15          986
 1386      906.485          977
 1387      906.819          969
 1388      907.154          972
 1389      907.488          981
 1390      907.822          985
 1391      908.156          984
 1392       908.49          984
 1393      908.824          985
 1394      909.158          996
 1395      909.492         1001
 1396      909.825         1006
 1397      910.159         1033
 1398      910.492         1090
 1399      910.825         1181
 1400      911.158         1300
 1401      911.491         1456
 1402      911.824         1647
 1403      912.157         1853
 1404      912.489         2084
 1405      912.822         2338
 1406      913.154         2613
 1407      913.486         2951
 1408      913.818         3365
 1409       914.15         3739
 1410      914.482         3908
 1411      914.814         3825
 1412      915.146         3518
 1413      915.477         3003
 1414      915.809         2429
 1415       916.14         1941
 1416      916.471         1583
 1417      916.802         1347
 1418      917.133         1204
 1419      917.464         1127
 1420      917.795         1077
 1421      918.125         1047
 1422      918.456         1037
 1423      918.786         1033
 1424      919.116         1027
 1425      919.446         1021
 1426      919.776         1013
 1427      920.106         1006
 1428      920.436         1013
 1429      920.766         1021
 1430      921.095         1027
 1431      921.425         1041
 1432      921.754         1065
 1433      922.083         1092
 1434      922.412         1125
 1435      922.741         1156
 1436       923.07         1199
 1437      923.399         1239
 1438      923.727         1281
 1439      924.056         1338
 1440      924.384         1394
 1441      924.713         1441
 1442      925.041         1469
 1443      925.369         1455
 1444      925.697         1397
 1445      926.024         1310
 1446      926.352         1217
 1447       926.68         1138
 1448      927.007         1072
 1449      927.334         1028
 1450      927.662         1009
 1451      927.989          998
 1452      928.316          992
 1453      928.643          990
 1454      928.969          984
 1455      929.296          978
 1456      929.622          974
 1457      929.949          969
 1458      930.275          965
 1459      930.601          969
 1460      930.927          971
 1461      931.253          971
 1462      931.579          975
 1463      931.905          973
 1464       932.23          964
 1465      932.556          956
 1466      932.881          954
 1467      933.206          955
 1468      933.531          958
 1469      933.856          959
 1470      934.181          960
 1471      934.506          970
 1472       934.83          976
 1473      935.155          970
 1474      935.479          964
 1475      935.803          963
 1476      936.128          968
 1477      936.452          976
 1478      936.775          977
 1479      937.099          976
 1480      937.423          983
 1481      937.746          990
 1482       938.07          993
 1483      938.393          996
 1484      938.716          999
 1485      939.039         1000
 1486      939.362          989
 1487      939.685          979
 1488      940.008          971
 1489      940.331          963
 1490      940.653          959
 1491      940.975          960
 1492      941.298          957
 1493       941.62          953
 1494      941.942          952
 1495      942.264          954
 1496      942.585          955
 1497      942.907          961
 1498      943.229          969
 1499       943.55          972
 1500      943.871          966
 1501      944.192          961
 1502      944.513          959
 1503      944.834          953
 1504      945.155          954
 1505      945.476          960
 1506      945.796          968
 1507      946.117          969
 1508      946.437          962
 1509      946.757          960
 1510      947.078          961
 1511      947.398          954
 1512      947.717          953
 1513      948.037          957
 1514      948.357          956
 1515      948.676          957
 1516      948.996          961
 1517      949.315          965
 1518      949.634          969
 1519      949.953          969
 1520      950.272          970
 1521      950.591          968
 1522      950.909          964
 1523      951.228          961
 1524      951.546          962
 1525      951.865          962
 1526      952.183          954
 1527      952.501          950
 1528      952.819          955
 1529      953.137          949
 1530      953.454          952
 1531      953.772          956
 1532      954.089          955
 1533      954.407          951
 1534      954.724          952
 1535      955.041          959
 1536      955.358          964
 1537      955.675          966
 1538      955.992          968
 1539      956.308          967
 1540      956.625          965
 1541      956.941          961
 1542      957.257          956
 1543      957.574          957
 1544       957.89          957
 1545      958.206          953
 1546      958.521          956
 1547      958.837          960
 1548      959.152          958
 1549      959.468          957
 1550      959.783          958
 1551      960.098          956
 1552      960.413          953
 1553      960.728          956
 1554      961.043          960
 1555      961.358          958
 1556      961.672          955
 1557      961.987          955
 1558      962.301          953
 1559      962.615          956
 1560       962.93          951
 1561      963.244          947
 1562      963.557          952
 1563      963.871          963
 1564      964.185          961
 1565      964.498          959
 1566      964.812          964
 1567      965.125          972
 1568      965.438          981
 1569      965.751          984
 1570      966.064          996
 1571      966.377         1016
 1572      966.689         1031
 1573      967.002         1049
 1574      967.314         1070
 1575      967.626         1084
 1576      967.939         1094
 1577      968.251         1112
 1578      968.563         1135
 1579      968.874         1154
 1580      969.186         1171
 1581      969.498         1189
 1582      969.809         1212
 1583       970.12         1220
 1584      970.431         1209
 1585      970.743         1178
 1586      971.053         1138
 1587      971.364         1103
 1588      971.675         1065
 1589      971.986         1033
 1590      972.296         1013
 1591      972.606          994
 1592      972.917          982
 1593      973.227          978
 1594      973.537          976
 1595      973.847          976
 1596      974.156          972
 1597      974.466          965
 1598      974.775          964
 1599      975.085          967
 1600      975.394          969
 1601      975.703          964
 1602      976.012          959
 1603      976.321          957
 1604       976.63          956
 1605      976.938          954
 1606      977.247          956
 1607      977.555          956
 1608      977.863          953
 1609      978.172          950
 1610       978.48          953
 1611      978.787          962
 1612      979.095          968
 1613      979.403          963
 1614       979.71          958
 1615      980.018          965
 1616      980.325          979
 1617      980.632          980
 1618      980.939          977
 1619      981.246          977
 1620      981.553          974
 1621       981.86          976
 1622      982.166          978
 1623      982.473          975
 1624      982.779          966
 1625      983.085          965
 1626      983.391          968
 1627      983.697          975
 1628      984.003          983
 1629      984.309          981
 1630      984.614          974
 1631       984.92          968
 1632      985.225          962
 1633       985.53          964
 1634      985.835          966
 1635       986.14          962
 1636      986.445          961
 1637       986.75          964
 1638      987.054          962
 1639      987.359          955
 1640      987.663          956
 1641      987.967          961
 1642      988.271          959
 1643      988.575          962
 1644      988.879          966
 1645      989.183          958
 1646      989.487          954
 1647       989.79          959
 1648      990.093          959
 1649      990.397          965
 1650        990.7          971
 1651      991.003          968
 1652      991.306          965
 1653      991.608          962
 1654      991.911          962
 1655      992.213          965
 1656      992.516          959
 1657      992.818          957
 1658       993.12          958
 1659      993.422          959
 1660      993.724          959
 1661      994.026          958
 1662      994.327          957
 1663      994.629          955
 1664       994.93          954
 1665      995.232          955
 1666      995.533          962
 1667      995.834          966
 1668      996.135          969
 1669      996.435          963
 1670      996.736          956
 1671      997.036          959
 1672      997.337          962
 1673      997.637          962
 1674      997.937          962
 1675      998.237          962
 1676      998.537          959
 1677      998.837          950
 1678      999.137          951
 1679      999.436          960
 1680      999.735          969
 1681      1000.03          967
 1682      1000.33          965
 1683      1000.63          968
 1684      1000.93          965
 1685      1001.23          960
 1686      1001.53          957
 1687      1001.83          953
 1688      1002.13          954
 1689      1002.42          954
 1690      1002.72          957
 1691      1003.02          958
 1692      1003.32          954
 1693      1003.62          958
 1694      1003.91          960
 1695      1004.21          962
 1696      1004.51          970
 1697      1004.81          963
 1698       1005.1          957
 1699       1005.4          959
 1700       1005.7          958
 1701      1005.99          953
 1702      1006.29          951
 1703      1006.59          954
 1704      1006.88          954
 1705      1007.18          957
 1706      1007.48          964
 1707      1007.77          966
 1708      1008.07          961
 1709      1008.36          955
 1710      1008.66          955
 1711      1008.95          956
 1712      1009.25          955
 1713      1009.55          954
 1714      1009.84          960
 1715      1010.14          967
 1716      1010.43          972
 1717      1010.73          970
 1718      1011.02          961
 1719      1011.31          958
 1720      1011.61          952
 1721       1011.9          951
 1722       1012.2          951
 1723      1012.49          948
 1724      1012.79          957
 1725      1013.08          965
 1726      1013.37          961
 1727      1013.67          949
 1728      1013.96          948
 1729      1014.25          950
 1730      1014.55          954
 1731      1014.84          956
 1732      1015.13          956
 1733      1015.42          953
 1734      1015.72          953
 1735      1016.01          954
 1736       1016.3          953
 1737      1016.59          956
 1738      1016.89          958
 1739      1017.18          956
 1740      1017.47          957
 1741      1017.76          956
 1742      1018.05          956
 1743      1018.35          966
 1744      1018.64          970
 1745      1018.93          958
 1746      1019.22          952
 1747      1019.51          960
 1748       1019.8          965
 1749      1020.09          959
 1750      1020.38          952
 1751      1020.67          954
 1752      1020.96          958
 1753      1021.25          957
 1754      1021.54          954
 1755      1021.83          958
 1756      1022.12          964
 1757      1022.41          965
 1758       1022.7          962
 1759      1022.99          958
 1760      1023.28          956
 1761      1023.57          956
 1762      1023.86          954
 1763      1024.15          952
 1764      1024.44          950
 1765      1024.73          952
 1766      1025.02          955
 1767       1025.3          956
 1768      1025.59          954
 1769      1025.88          950
 1770      1026.17          956
 1771      1026.46          965
 1772      1026.74          966
 1773      1027.03          962
 1774      1027.32          957
 1775      1027.61          958
 1776      1027.89          957
 1777      1028.18          961
 1778      1028.47          966
 1779      1028.76          959
 1780      1029.04          952
 1781      1029.33          950
 1782      1029.62          953
 1783       1029.9          959
 1784      1030.19          958
 1785      1030.47          960
 1786      1030.76          963
 1787      1031.05          966
 1788      1031.33          968
 1789      1031.62          959
 1790       1031.9          956
 1791      1032.19          959
 1792      1032.47          960
 1793      1032.76          957
 1794      1033.04          958
 1795      1033.33          959
 1796      1033.61          959
 1797       1033.9          961
 1798      1034.18          962
 1799      1034.47          965
 1800      1034.75          968
 1801      1035.04          967
 1802      1035.32          962
 1803       1035.6          961
 1804      1035.89          959
 1805      1036.17          960
 1806      1036.45          957
 1807      1036.74          955
 1808      1037.02          954
 1809       1037.3          954
 1810      1037.59          953
 1811      1037.87          954
 1812      1038.15          955
 1813      1038.44          959
 1814      1038.72          952
 1815         1039          948
 1816      1039.28          949
 1817      1039.56          949
 1818      1039.85          945
 1819      1040.13          953
 1820      1040.41          969
 1821      1040.69          968
 1822      1040.97          966
 1823      1041.25          967
 1824      1041.54          966
 1825      1041.82          965
 1826       1042.1          961
 1827      1042.38          961
 1828      1042.66          963
 1829      1042.94          958
 1830      1043.22          952
 1831       1043.5          949
 1832      1043.78          952
 1833      1044.06          959
 1834      1044.34          959
 1835      1044.62          959
 1836       1044.9          961
 1837      1045.18          965
 1838      1045.46          968
 1839      1045.74          965
 1840      1046.02          969
 1841       1046.3          969
 1842      1046.58          958
 1843      1046.85          952
 1844      1047.13          951
 1845      1047.41          955
 1846      1047.69          962
 1847      1047.97          968
 1848      1048.25          965
 1849      1048.52          957
 1850       1048.8          956
 1851      1049.08          958
 1852      1049.36          962
 1853      1049.63          956
 1854      1049.91          950
 1855      1050.19          948
 1856      1050.47          944
 1857      1050.74          949
 1858      1051.02          953
 1859       1051.3          952
 1860      1051.57          956
 1861      1051.85          961
 1862      1052.13          964
 1863       1052.4          962
 1864      1052.68          956
 1865      1052.95          956
 1866      1053.23          960
 1867      1053.51          964
 1868      1053.78          965
 1869      1054.06          962
 1870      1054.33          954
 1871      1054.61          953
 1872      1054.88          959
 1873      1055.16          962
 1874      1055.43          957
 1875      1055.71          957
 1876      1055.98          957
 1877      1056.25          961
 1878      1056.53          964
 1879       1056.8          961
 1880      1057.08          956
 1881      1057.35          954
 1882      1057.62          957
 1883       1057.9          958
 1884      1058.17          961
 1885      1058.45          963
 1886      1058.72          965
 1887      1058.99          965
 1888      1059.26          961
 1889      1059.54          960
 1890      1059.81          961
 1891      1060.08          952
 1892      1060.35          951
 1893      1060.63          957
 1894       1060.9          956
 1895      1061.17          952
 1896      1061.44          953
 1897      1061.71          953
 1898      1061.99          958
 1899      1062.26          959
 1900      1062.53          961
 1901       1062.8          972
 1902      1063.07          973
 1903      1063.34          968
 1904      1063.61          958
 1905      1063.88          958
 1906      1064.15          958
 1907      1064.42          952
 1908       1064.7          958
 1909      1064.97          964
 1910      1065.24          964
 1911      1065.51          963
 1912      1065.78          963
 1913      1066.04          965
 1914      1066.31          961
 1915      1066.58          960
 1916      1066.85          961
 1917      1067.12          963
 1918      1067.39          965
 1919      1067.66          956
 1920      1067.93          945
 1921       1068.2          944
 1922      1068.47          946
 1923      1068.73          951
 1924         1069          951
 1925      1069.27          951
 1926      1069.54          957
 1927      1069.81          960
 1928      1070.07          962
 1929      1070.34          964
 1930      1070.61          966
 1931      1070.88          966
 1932      1071.14          968
 1933      1071.41          969
 1934      1071.68          969
 1935      1071.94          967
 1936      1072.21          970
 1937      1072.48          970
 1938      1072.74          965
 1939      1073.01          967
 1940      1073.28          967
 1941      1073.54          960
 1942      1073.81          960
 1943      1074.07          967
 1944      1074.34          964
 1945       1074.6          962
 1946      1074.87          960
 1947      1075.13          956
 1948       1075.4          952
 1949      1075.66          957
 1950      1075.93          954
 1951      1076.19          952
 1952      1076.46          956
 1953      1076.72          949
 1954      1076.99          945
 1955      1077.25          945
 1956      1077.52          952
 1957      1077.78          963
 1958      1078.04          967
 1959      1078.31          961
 1960      1078.57          958
 1961      1078.83          959
 1962       1079.1          962
 1963      1079.36          962
 1964      1079.62          965
 1965      1079.89          968
 1966      1080.15          968
 1967      1080.41          966
 1968      1080.67          957
 1969      1080.94          960
 1970       1081.2          967
 1971      1081.46          960
 1972      1081.72          954
 1973      1081.98          955
 1974      1082.24          952
 1975      1082.51          948
 1976      1082.77          951
 1977      1083.03          963
 1978      1083.29          963
 1979      1083.55          954
 1980      1083.81          955
 1981      1084.07          964
 1982      1084.33          962
 1983      1084.59          957
 1984      1084.85          956
 1985      1085.11          954
 1986      1085.37          954
 1987      1085.63          958
 1988      1085.89          961
 1989      1086.15          964
 1990      1086.41          965
 1991      1086.67          964
 1992      1086.93          961
 1993      1087.19          958
 1994      1087.45          957
 1995      1087.71          957
 1996      1087.97          962
 1997      1088.23          964
 1998      1088.48          961
 1999      1088.74          960
 2000         1089          962
 2001      1089.26          963
 2002      1089.52          962
 2003      1089.77          958
 2004      1090.03          960
 2005      1090.29          961
 2006      1090.55          966
 2007       1090.8          966
 2008      1091.06          962
 2009      1091.32          964
 2010      1091.57          968
 2011      1091.83          971
 2012      1092.09          968
 2013      1092.34          965
 2014       1092.6          964
 2015      1092.86          957
 2016      1093.11          949
 2017      1093.37          948
 2018      1093.62          949
 2019      1093.88          953
 2020      1094.13          961
 2021      1094.39          962
 2022      1094.65          959
 2023       1094.9          957
 2024      1095.16          955
 2025      1095.41          959
 2026      1095.66          962
 2027      1095.92          961
 2028      1096.17          961
 2029      1096.43          966
 2030      1096.68          966
 2031      1096.94          964
 2032      1097.19          962
 2033      1097.44          961
 2034       1097.7          961
 2035      1097.95          962
 2036       1098.2          959
 2037      1098.46          955
 2038      1098.71          950
 2039      1098.96          946
 2040      1099.22          947
 2041      1099.47          949
 2042      1099.72          952
 2043      1099.97          957
 2044      1100.23          960
 2045      1100.48          959
 2046      1100.73          959
 2047      1100.98          984
