scansci Spectrometer Data File
--- Measurement Setting ---
Type: Sample Spectrum
Date: Wed May 26 15:29:25 2021
User: (Reserved by scansci)
Serial: (Reserved by scansci)
Channel: No. 11
Integration Time: 222
Average: 1
Boxcar: 0
Electrical Dark: No-corrected
Time Normalize: (Reserved by scansci)
Dual-beam: (Reserved by scansci)
Reference Ch: (Reserved by scansci)
--- Measurement Data ---
Pixel   Wavelength   Intensity
    0        162.5          864
    1      162.985          862
    2      163.469          856
    3      163.954          851
    4      164.439          860
    5      164.923          873
    6      165.408          873
    7      165.892          861
    8      166.377          859
    9      166.861          869
   10      167.345          867
   11       167.83          861
   12      168.314          866
   13      168.798          858
   14      169.282          849
   15      169.766          846
   16       170.25          846
   17      170.734          847
   18      171.218          847
   19      171.702          844
   20      172.185          847
   21      172.669          857
   22      173.153          849
   23      173.636          848
   24       174.12          842
   25      174.603          866
   26      175.087          887
   27       175.57          873
   28      176.053          863
   29      176.537          868
   30       177.02          869
   31      177.503          865
   32      177.986          864
   33      178.469          857
   34      178.952          870
   35      179.435          871
   36      179.918          876
   37      180.401          884
   38      180.884          874
   39      181.366          869
   40      181.849          864
   41      182.332          860
   42      182.814          857
   43      183.297          857
   44      183.779          847
   45      184.262          847
   46      184.744          846
   47      185.226          853
   48      185.708          856
   49      186.191          853
   50      186.673          854
   51      187.155          850
   52      187.637          857
   53      188.119          855
   54        188.6          851
   55      189.082          848
   56      189.564          849
   57      190.046          846
   58      190.527          844
   59      191.009          838
   60      191.491          838
   61      191.972          846
   62      192.454          849
   63      192.935          857
   64      193.416          863
   65      193.897          863
   66      194.379          872
   67       194.86          870
   68      195.341          861
   69      195.822          857
   70      196.303          853
   71      196.784          854
   72      197.265          860
   73      197.746          857
   74      198.226          849
   75      198.707          854
   76      199.188          866
   77      199.668          863
   78      200.149          852
   79      200.629          850
   80       201.11          859
   81       201.59          861
   82       202.07          855
   83       202.55          853
   84      203.031          857
   85      203.511          853
   86      203.991          849
   87      204.471          850
   88      204.951          846
   89      205.431          833
   90       205.91          832
   91       206.39          839
   92       206.87          843
   93      207.349          848
   94      207.829          852
   95      208.309          847
   96      208.788          841
   97      209.267          843
   98      209.747          852
   99      210.226          856
  100      210.705          854
  101      211.185          855
  102      211.664          850
  103      212.143          844
  104      212.622          844
  105      213.101          843
  106      213.579          849
  107      214.058          849
  108      214.537          843
  109      215.016          852
  110      215.494          859
  111      215.973          861
  112      216.452          864
  113       216.93          866
  114      217.408          874
  115      217.887          869
  116      218.365          863
  117      218.843          862
  118      219.321          862
  119      219.799          868
  120      220.278          873
  121      220.755          875
  122      221.233          871
  123      221.711          861
  124      222.189          857
  125      222.667          856
  126      223.144          861
  127      223.622          864
  128        224.1          872
  129      224.577          886
  130      225.055          885
  131      225.532          878
  132      226.009          871
  133      226.486          865
  134      226.964          861
  135      227.441          852
  136      227.918          842
  137      228.395          849
  138      228.872          856
  139      229.349          857
  140      229.826          861
  141      230.302          863
  142      230.779          853
  143      231.256          861
  144      231.732          861
  145      232.209          860
  146      232.685          864
  147      233.162          857
  148      233.638          852
  149      234.114          852
  150       234.59          852
  151      235.066          856
  152      235.543          853
  153      236.019          858
  154      236.495          864
  155       236.97          859
  156      237.446          851
  157      237.922          861
  158      238.398          852
  159      238.873          853
  160      239.349          850
  161      239.824          844
  162        240.3          842
  163      240.775          838
  164      241.251          849
  165      241.726          853
  166      242.201          852
  167      242.676          853
  168      243.151          850
  169      243.626          854
  170      244.101          858
  171      244.576          850
  172      245.051          851
  173      245.526          851
  174          246          849
  175      246.475          851
  176       246.95          857
  177      247.424          859
  178      247.899          856
  179      248.373          861
  180      248.847          858
  181      249.321          844
  182      249.796          845
  183       250.27          850
  184      250.744          854
  185      251.218          861
  186      251.692          864
  187      252.166          865
  188      252.639          869
  189      253.113          861
  190      253.587          855
  191       254.06          856
  192      254.534          855
  193      255.007          853
  194      255.481          849
  195      255.954          852
  196      256.427          857
  197      256.901          855
  198      257.374          853
  199      257.847          857
  200       258.32          854
  201      258.793          857
  202      259.266          859
  203      259.739          859
  204      260.211          851
  205      260.684          854
  206      261.157          861
  207      261.629          851
  208      262.102          852
  209      262.574          856
  210      263.046          865
  211      263.519          875
  212      263.991          865
  213      264.463          850
  214      264.935          844
  215      265.407          850
  216      265.879          861
  217      266.351          865
  218      266.823          861
  219      267.295          861
  220      267.766          851
  221      268.238          849
  222       268.71          850
  223      269.181          849
  224      269.653          854
  225      270.124          857
  226      270.595          857
  227      271.066          857
  228      271.538          859
  229      272.009          866
  230       272.48          863
  231      272.951          857
  232      273.422          857
  233      273.892          859
  234      274.363          856
  235      274.834          853
  236      275.305          853
  237      275.775          855
  238      276.246          854
  239      276.716          851
  240      277.186          852
  241      277.657          846
  242      278.127          844
  243      278.597          846
  244      279.067          847
  245      279.537          847
  246      280.007          840
  247      280.477          843
  248      280.947          850
  249      281.417          850
  250      281.886          850
  251      282.356          843
  252      282.825          839
  253      283.295          839
  254      283.764          843
  255      284.234          856
  256      284.703          858
  257      285.172          853
  258      285.641          856
  259       286.11          856
  260      286.579          851
  261      287.048          844
  262      287.517          841
  263      287.986          844
  264      288.454          852
  265      288.923          861
  266      289.392          873
  267       289.86          869
  268      290.329          859
  269      290.797          853
  270      291.265          863
  271      291.734          870
  272      292.202          866
  273       292.67          862
  274      293.138          862
  275      293.606          855
  276      294.074          847
  277      294.541          850
  278      295.009          853
  279      295.477          859
  280      295.944          861
  281      296.412          868
  282      296.879          873
  283      297.347          868
  284      297.814          866
  285      298.281          857
  286      298.749          855
  287      299.216          855
  288      299.683          848
  289       300.15          851
  290      300.616          856
  291      301.083          859
  292       301.55          857
  293      302.017          852
  294      302.483          850
  295       302.95          849
  296      303.416          848
  297      303.883          851
  298      304.349          857
  299      304.815          857
  300      305.281          855
  301      305.748          859
  302      306.214          869
  303       306.68          868
  304      307.146          860
  305      307.611          851
  306      308.077          845
  307      308.543          844
  308      309.008          839
  309      309.474          841
  310      309.939          846
  311      310.405          845
  312       310.87          842
  313      311.335          841
  314        311.8          853
  315      312.266          855
  316      312.731          849
  317      313.196          850
  318       313.66          858
  319      314.125          864
  320       314.59          859
  321      315.055          847
  322      315.519          850
  323      315.984          859
  324      316.448          861
  325      316.913          864
  326      317.377          866
  327      317.841          871
  328      318.305          910
  329      318.769          955
  330      319.233          957
  331      319.697          934
  332      320.161          910
  333      320.625          903
  334      321.089          901
  335      321.552          893
  336      322.016          881
  337      322.479          887
  338      322.943          889
  339      323.406          864
  340      323.869          859
  341      324.333          866
  342      324.796          871
  343      325.259          864
  344      325.722          858
  345      326.185          853
  346      326.647          856
  347       327.11          862
  348      327.573          867
  349      328.035          864
  350      328.498          860
  351       328.96          859
  352      329.423          875
  353      329.885          879
  354      330.347          876
  355       330.81          869
  356      331.272          860
  357      331.734          865
  358      332.196          860
  359      332.657          850
  360      333.119          851
  361      333.581          854
  362      334.043          858
  363      334.504          847
  364      334.966          853
  365      335.427          855
  366      335.888          844
  367       336.35          847
  368      336.811          867
  369      337.272          875
  370      337.733          863
  371      338.194          857
  372      338.655          856
  373      339.115          859
  374      339.576          864
  375      340.037          867
  376      340.497          872
  377      340.958          880
  378      341.418          873
  379      341.879          870
  380      342.339          866
  381      342.799          860
  382      343.259          879
  383      343.719          893
  384      344.179          883
  385      344.639          875
  386      345.099          862
  387      345.559          852
  388      346.018          852
  389      346.478          857
  390      346.937          863
  391      347.397          864
  392      347.856          862
  393      348.315          858
  394      348.774          857
  395      349.234          861
  396      349.693          860
  397      350.152          855
  398       350.61          860
  399      351.069          867
  400      351.528          868
  401      351.987          855
  402      352.445          849
  403      352.904          853
  404      353.362          858
  405       353.82          866
  406      354.279          870
  407      354.737          879
  408      355.195          882
  409      355.653          870
  410      356.111          873
  411      356.569          879
  412      357.027          877
  413      357.484          868
  414      357.942          862
  415      358.399          861
  416      358.857          854
  417      359.314          849
  418      359.772          847
  419      360.229          847
  420      360.686          849
  421      361.143          857
  422        361.6          867
  423      362.057          872
  424      362.514          873
  425      362.971          871
  426      363.427          866
  427      363.884          863
  428       364.34          859
  429      364.797          854
  430      365.253          857
  431      365.709          862
  432      366.166          867
  433      366.622          864
  434      367.078          864
  435      367.534          870
  436       367.99          873
  437      368.445          875
  438      368.901          865
  439      369.357          861
  440      369.812          858
  441      370.268          856
  442      370.723          866
  443      371.179          863
  444      371.634          857
  445      372.089          860
  446      372.544          860
  447      372.999          869
  448      373.454          879
  449      373.909          877
  450      374.364          869
  451      374.818          862
  452      375.273          862
  453      375.727          861
  454      376.182          860
  455      376.636          864
  456       377.09          865
  457      377.545          867
  458      377.999          872
  459      378.453          871
  460      378.907          875
  461      379.361          867
  462      379.814          861
  463      380.268          869
  464      380.722          876
  465      381.175          878
  466      381.629          885
  467      382.082          898
  468      382.535          897
  469      382.989          885
  470      383.442          882
  471      383.895          891
  472      384.348          901
  473      384.801          901
  474      385.253          903
  475      385.706          911
  476      386.159          920
  477      386.611          933
  478      387.064          985
  479      387.516         1102
  480      387.968         1483
  481      388.421         3067
  482      388.873         5985
  483      389.325         7631
  484      389.777         6583
  485      390.229         4609
  486      390.681         3161
  487      391.132         2271
  488      391.584         1726
  489      392.035         1397
  490      392.487         1206
  491      392.938         1088
  492       393.39         1019
  493      393.841          981
  494      394.292          955
  495      394.743          930
  496      395.194          925
  497      395.645          921
  498      396.096          931
  499      396.546          959
  500      396.997          966
  501      397.448          942
  502      397.898          921
  503      398.349          908
  504      398.799          894
  505      399.249          884
  506      399.699          887
  507      400.149          893
  508      400.599          882
  509      401.049          873
  510      401.499          876
  511      401.949          894
  512      402.398          945
  513      402.848         1005
  514      403.297         1024
  515      403.747          986
  516      404.196          940
  517      404.645          914
  518      405.094          900
  519      405.543          888
  520      405.992          880
  521      406.441          873
  522       406.89          864
  523      407.339          855
  524      407.787          864
  525      408.236          872
  526      408.684          874
  527      409.132          870
  528      409.581          875
  529      410.029          878
  530      410.477          869
  531      410.925          865
  532      411.373          867
  533      411.821          878
  534      412.269          896
  535      412.716          908
  536      413.164          919
  537      413.611          917
  538      414.059          901
  539      414.506          895
  540      414.953          890
  541        415.4          881
  542      415.847          873
  543      416.294          869
  544      416.741          869
  545      417.188          873
  546      417.635          868
  547      418.081          871
  548      418.528          873
  549      418.974          876
  550      419.421          874
  551      419.867          862
  552      420.313          860
  553      420.759          857
  554      421.205          854
  555      421.651          856
  556      422.097          858
  557      422.543          857
  558      422.989          860
  559      423.434          865
  560       423.88          868
  561      424.325          870
  562       424.77          869
  563      425.216          868
  564      425.661          870
  565      426.106          870
  566      426.551          867
  567      426.996          868
  568       427.44          868
  569      427.885          863
  570       428.33          865
  571      428.774          868
  572      429.219          868
  573      429.663          873
  574      430.107          873
  575      430.551          864
  576      430.996          865
  577       431.44          865
  578      431.883          858
  579      432.327          856
  580      432.771          853
  581      433.215          855
  582      433.658          865
  583      434.102          876
  584      434.545          869
  585      434.988          859
  586      435.431          861
  587      435.875          858
  588      436.318          860
  589      436.761          864
  590      437.203          872
  591      437.646          880
  592      438.089          888
  593      438.531          899
  594      438.974          913
  595      439.416          918
  596      439.859          899
  597      440.301          885
  598      440.743          883
  599      441.185          881
  600      441.627          884
  601      442.069          887
  602       442.51          886
  603      442.952          873
  604      443.394          869
  605      443.835          877
  606      444.277          891
  607      444.718          894
  608      445.159          895
  609        445.6          911
  610      446.041          968
  611      446.482         1162
  612      446.923         1763
  613      447.364         2743
  614      447.804         3188
  615      448.245         2686
  616      448.685         2007
  617      449.126         1553
  618      449.566         1270
  619      450.006         1108
  620      450.447         1020
  621      450.887          966
  622      451.326          931
  623      451.766          910
  624      452.206          900
  625      452.646          897
  626      453.085          887
  627      453.525          873
  628      453.964          866
  629      454.403          868
  630      454.843          868
  631      455.282          858
  632      455.721          853
  633       456.16          853
  634      456.599          852
  635      457.037          851
  636      457.476          851
  637      457.915          847
  638      458.353          851
  639      458.791          852
  640       459.23          854
  641      459.668          864
  642      460.106          869
  643      460.544          866
  644      460.982          865
  645       461.42          869
  646      461.857          859
  647      462.295          852
  648      462.733          862
  649       463.17          872
  650      463.607          880
  651      464.045          885
  652      464.482          893
  653      464.919          899
  654      465.356          896
  655      465.793          896
  656       466.23          893
  657      466.666          887
  658      467.103          884
  659      467.539          877
  660      467.976          873
  661      468.412          868
  662      468.848          867
  663      469.284          874
  664       469.72          884
  665      470.156          898
  666      470.592          923
  667      471.028          999
  668      471.464         1138
  669      471.899         1225
  670      472.335         1175
  671       472.77         1066
  672      473.205          994
  673      473.641          952
  674      474.076          924
  675      474.511          907
  676      474.946          886
  677       475.38          871
  678      475.815          871
  679       476.25          879
  680      476.684          884
  681      477.119          877
  682      477.553          869
  683      477.987          857
  684      478.421          850
  685      478.856          860
  686      479.289          877
  687      479.723          879
  688      480.157          868
  689      480.591          868
  690      481.024          874
  691      481.458          871
  692      481.891          871
  693      482.324          867
  694      482.758          867
  695      483.191          869
  696      483.624          870
  697      484.057          868
  698      484.489          861
  699      484.922          848
  700      485.355          849
  701      485.787          858
  702       486.22          864
  703      486.652          869
  704      487.084          876
  705      487.516          874
  706      487.948          873
  707       488.38          875
  708      488.812          877
  709      489.244          871
  710      489.676          871
  711      490.107          872
  712      490.539          873
  713       490.97          881
  714      491.401          903
  715      491.832          988
  716      492.263         1180
  717      492.694         1360
  718      493.125         1344
  719      493.556         1190
  720      493.987         1068
  721      494.417          988
  722      494.848          939
  723      495.278          913
  724      495.708          902
  725      496.139          883
  726      496.569          869
  727      496.999          868
  728      497.429          870
  729      497.858          874
  730      498.288          876
  731      498.718          869
  732      499.147          875
  733      499.577          881
  734      500.006          891
  735      500.435          923
  736      500.864         1030
  737      501.293         1407
  738      501.722         2191
  739      502.151         2841
  740       502.58         2673
  741      503.008         2045
  742      503.437         1577
  743      503.865         1295
  744      504.293         1135
  745      504.722         1048
  746       505.15         1006
  747      505.578          968
  748      506.006          929
  749      506.434          905
  750      506.861          892
  751      507.289          885
  752      507.716          881
  753      508.144          869
  754      508.571          860
  755      508.998          864
  756      509.425          870
  757      509.852          866
  758      510.279          867
  759      510.706          861
  760      511.133          859
  761       511.56          866
  762      511.986          865
  763      512.412          865
  764      512.839          869
  765      513.265          867
  766      513.691          872
  767      514.117          878
  768      514.543          877
  769      514.969          866
  770      515.395          858
  771       515.82          867
  772      516.246          874
  773      516.671          875
  774      517.096          873
  775      517.522          876
  776      517.947          876
  777      518.372          869
  778      518.797          858
  779      519.222          849
  780      519.646          856
  781      520.071          859
  782      520.495          858
  783       520.92          864
  784      521.344          870
  785      521.768          865
  786      522.192          859
  787      522.616          853
  788       523.04          856
  789      523.464          855
  790      523.888          855
  791      524.311          858
  792      524.735          857
  793      525.158          863
  794      525.581          869
  795      526.005          867
  796      526.428          865
  797      526.851          873
  798      527.274          890
  799      527.696          900
  800      528.119          887
  801      528.542          873
  802      528.964          863
  803      529.386          856
  804      529.809          858
  805      530.231          868
  806      530.653          866
  807      531.075          867
  808      531.497          863
  809      531.918          859
  810       532.34          860
  811      532.761          857
  812      533.183          855
  813      533.604          853
  814      534.025          859
  815      534.447          863
  816      534.868          868
  817      535.289          864
  818      535.709          857
  819       536.13          867
  820      536.551          873
  821      536.971          869
  822      537.392          870
  823      537.812          866
  824      538.232          868
  825      538.652          868
  826      539.072          861
  827      539.492          871
  828      539.912          868
  829      540.331          865
  830      540.751          863
  831       541.17          855
  832       541.59          853
  833      542.009          861
  834      542.428          869
  835      542.847          874
  836      543.266          868
  837      543.685          861
  838      544.104          863
  839      544.522          855
  840      544.941          849
  841      545.359          851
  842      545.778          851
  843      546.196          849
  844      546.614          848
  845      547.032          851
  846       547.45          865
  847      547.867          871
  848      548.285          867
  849      548.703          861
  850       549.12          858
  851      549.538          861
  852      549.955          861
  853      550.372          863
  854      550.789          862
  855      551.206          857
  856      551.623          859
  857      552.039          865
  858      552.456          869
  859      552.873          870
  860      553.289          865
  861      553.705          871
  862      554.121          873
  863      554.537          871
  864      554.953          881
  865      555.369          883
  866      555.785          874
  867      556.201          866
  868      556.616          860
  869      557.032          860
  870      557.447          855
  871      557.862          860
  872      558.277          856
  873      558.692          847
  874      559.107          854
  875      559.522          857
  876      559.937          857
  877      560.351          860
  878      560.766          854
  879       561.18          849
  880      561.595          850
  881      562.009          853
  882      562.423          855
  883      562.837          857
  884       563.25          861
  885      563.664          868
  886      564.078          866
  887      564.491          862
  888      564.905          857
  889      565.318          856
  890      565.731          861
  891      566.144          858
  892      566.557          852
  893       566.97          859
  894      567.383          869
  895      567.795          872
  896      568.208          873
  897       568.62          869
  898      569.033          865
  899      569.445          868
  900      569.857          868
  901      570.269          869
  902      570.681          879
  903      571.093          882
  904      571.504          881
  905      571.916          884
  906      572.327          884
  907      572.739          886
  908       573.15          895
  909      573.561          911
  910      573.972          909
  911      574.383          892
  912      574.794          882
  913      575.204          879
  914      575.615          876
  915      576.025          874
  916      576.436          873
  917      576.846          874
  918      577.256          884
  919      577.666          887
  920      578.076          881
  921      578.486          880
  922      578.896          890
  923      579.305          892
  924      579.715          898
  925      580.124          906
  926      580.533          909
  927      580.942          913
  928      581.351          917
  929       581.76          924
  930      582.169          944
  931      582.578          958
  932      582.986          950
  933      583.395          959
  934      583.803          968
  935      584.212          972
  936       584.62          985
  937      585.028         1014
  938      585.436         1054
  939      585.843         1137
  940      586.251         1385
  941      586.659         1964
  942      587.066         3840
  943      587.474         9089
  944      587.881        15605
  945      588.288        16383
  946      588.695        16383
  947      589.102        12505
  948      589.509         7993
  949      589.915         5248
  950      590.322         3567
  951      590.728         2547
  952      591.135         1940
  953      591.541         1563
  954      591.947         1335
  955      592.353         1193
  956      592.759         1093
  957      593.165         1040
  958      593.571         1000
  959      593.976          977
  960      594.382          964
  961      594.787          943
  962      595.192          932
  963      595.597          925
  964      596.002          923
  965      596.407          915
  966      596.812          906
  967      597.217          902
  968      597.621          907
  969      598.026          914
  970       598.43          918
  971      598.834          914
  972      599.238          908
  973      599.642          896
  974      600.046          899
  975       600.45          904
  976      600.854          900
  977      601.257          897
  978      601.661          900
  979      602.064          903
  980      602.467          908
  981       602.87          905
  982      603.273          891
  983      603.676          878
  984      604.079          883
  985      604.481          887
  986      604.884          880
  987      605.286          865
  988      605.689          865
  989      606.091          877
  990      606.493          875
  991      606.895          869
  992      607.297          867
  993      607.698          866
  994        608.1          862
  995      608.501          863
  996      608.903          869
  997      609.304          872
  998      609.705          873
  999      610.106          872
 1000      610.507          888
 1001      610.908          890
 1002      611.308          869
 1003      611.709          862
 1004      612.109          870
 1005       612.51          871
 1006       612.91          861
 1007       613.31          857
 1008       613.71          870
 1009       614.11          871
 1010       614.51          863
 1011      614.909          867
 1012      615.309          891
 1013      615.708          901
 1014      616.108          883
 1015      616.507          879
 1016      616.906          873
 1017      617.305          866
 1018      617.704          867
 1019      618.102          871
 1020      618.501          869
 1021      618.899          868
 1022      619.298          866
 1023      619.696          865
 1024      620.094          873
 1025      620.492          875
 1026       620.89          869
 1027      621.288          868
 1028      621.686          876
 1029      622.083          874
 1030       622.48          865
 1031      622.878          861
 1032      623.275          863
 1033      623.672          860
 1034      624.069          861
 1035      624.466          869
 1036      624.863          871
 1037      625.259          869
 1038      625.656          867
 1039      626.052          871
 1040      626.448          896
 1041      626.844          905
 1042      627.241          884
 1043      627.636          880
 1044      628.032          881
 1045      628.428          871
 1046      628.823          869
 1047      629.219          863
 1048      629.614          854
 1049      630.009          855
 1050      630.404          855
 1051      630.799          865
 1052      631.194          869
 1053      631.589          862
 1054      631.984          849
 1055      632.378          839
 1056      632.772          841
 1057      633.167          854
 1058      633.561          866
 1059      633.955          873
 1060      634.349          866
 1061      634.743          867
 1062      635.136          865
 1063       635.53          876
 1064      635.923          887
 1065      636.316          877
 1066       636.71          877
 1067      637.103          881
 1068      637.496          871
 1069      637.888          864
 1070      638.281          861
 1071      638.674          860
 1072      639.066          857
 1073      639.459          852
 1074      639.851          856
 1075      640.243          864
 1076      640.635          866
 1077      641.027          866
 1078      641.419          870
 1079       641.81          870
 1080      642.202          862
 1081      642.593          863
 1082      642.984          873
 1083      643.375          875
 1084      643.766          870
 1085      644.157          866
 1086      644.548          869
 1087      644.939          864
 1088      645.329          853
 1089       645.72          851
 1090       646.11          854
 1091        646.5          855
 1092       646.89          864
 1093       647.28          868
 1094       647.67          868
 1095       648.06          865
 1096      648.449          867
 1097      648.839          862
 1098      649.228          859
 1099      649.617          864
 1100      650.007          869
 1101      650.396          871
 1102      650.784          884
 1103      651.173          888
 1104      651.562          872
 1105       651.95          866
 1106      652.339          864
 1107      652.727          867
 1108      653.115          871
 1109      653.503          863
 1110      653.891          859
 1111      654.279          867
 1112      654.666          870
 1113      655.054          865
 1114      655.441          872
 1115      655.828          871
 1116      656.216          857
 1117      656.603          853
 1118      656.989          850
 1119      657.376          855
 1120      657.763          863
 1121      658.149          865
 1122      658.536          865
 1123      658.922          859
 1124      659.308          855
 1125      659.694          857
 1126       660.08          849
 1127      660.466          845
 1128      660.852          856
 1129      661.237          863
 1130      661.623          867
 1131      662.008          865
 1132      662.393          865
 1133      662.778          865
 1134      663.163          865
 1135      663.548          864
 1136      663.933          864
 1137      664.317          858
 1138      664.702          861
 1139      665.086          871
 1140       665.47          884
 1141      665.854          897
 1142      666.238          913
 1143      666.622          949
 1144      667.006         1036
 1145      667.389         1412
 1146      667.773         2400
 1147      668.156         3669
 1148      668.539         4125
 1149      668.923         3423
 1150      669.305         2454
 1151      669.688         1814
 1152      670.071         1429
 1153      670.454         1197
 1154      670.836         1069
 1155      671.218          989
 1156      671.601          940
 1157      671.983          907
 1158      672.365          884
 1159      672.747          863
 1160      673.128          853
 1161       673.51          865
 1162      673.891          866
 1163      674.273          864
 1164      674.654          861
 1165      675.035          864
 1166      675.416          873
 1167      675.797          870
 1168      676.177          861
 1169      676.558          859
 1170      676.938          859
 1171      677.319          857
 1172      677.699          857
 1173      678.079          864
 1174      678.459          871
 1175      678.839          870
 1176      679.219          870
 1177      679.598          863
 1178      679.978          858
 1179      680.357          857
 1180      680.736          863
 1181      681.115          875
 1182      681.494          862
 1183      681.873          852
 1184      682.252          861
 1185       682.63          867
 1186      683.009          865
 1187      683.387          876
 1188      683.765          878
 1189      684.143          864
 1190      684.521          868
 1191      684.899          867
 1192      685.277          864
 1193      685.654          863
 1194      686.032          856
 1195      686.409          852
 1196      686.786          852
 1197      687.163          859
 1198       687.54          864
 1199      687.917          861
 1200      688.294          867
 1201       688.67          873
 1202      689.046          870
 1203      689.423          864
 1204      689.799          868
 1205      690.175          868
 1206      690.551          860
 1207      690.927          861
 1208      691.302          897
 1209      691.678          916
 1210      692.053          891
 1211      692.428          875
 1212      692.804          869
 1213      693.179          869
 1214      693.553          869
 1215      693.928          866
 1216      694.303          868
 1217      694.677          858
 1218      695.052          865
 1219      695.426          870
 1220        695.8          861
 1221      696.174          864
 1222      696.548          860
 1223      696.921          857
 1224      697.295          856
 1225      697.669          849
 1226      698.042          844
 1227      698.415          843
 1228      698.788          841
 1229      699.161          841
 1230      699.534          853
 1231      699.907          875
 1232      700.279          893
 1233      700.652          890
 1234      701.024          880
 1235      701.396          867
 1236      701.768          860
 1237       702.14          863
 1238      702.512          871
 1239      702.883          870
 1240      703.255          869
 1241      703.626          867
 1242      703.998          875
 1243      704.369          893
 1244       704.74          918
 1245      705.111          957
 1246      705.481         1032
 1247      705.852         1269
 1248      706.222         2271
 1249      706.593         4217
 1250      706.963         5937
 1251      707.333         6087
 1252      707.703         4707
 1253      708.073         3203
 1254      708.442         2262
 1255      708.812         1699
 1256      709.181         1367
 1257      709.551         1165
 1258       709.92         1038
 1259      710.289          963
 1260      710.658          925
 1261      711.027          898
 1262      711.395          889
 1263      711.764          882
 1264      712.132          871
 1265        712.5          867
 1266      712.869          870
 1267      713.236          874
 1268      713.604          874
 1269      713.972          870
 1270       714.34          862
 1271      714.707          859
 1272      715.074          863
 1273      715.442          877
 1274      715.809          886
 1275      716.176          875
 1276      716.542          861
 1277      716.909          866
 1278      717.276          876
 1279      717.642          873
 1280      718.008          863
 1281      718.374          852
 1282       718.74          849
 1283      719.106          854
 1284      719.472          863
 1285      719.838          859
 1286      720.203          849
 1287      720.568          845
 1288      720.934          848
 1289      721.299          856
 1290      721.664          870
 1291      722.029          869
 1292      722.393          866
 1293      722.758          868
 1294      723.122          864
 1295      723.486          868
 1296      723.851          872
 1297      724.215          864
 1298      724.578          860
 1299      724.942          850
 1300      725.306          840
 1301      725.669          842
 1302      726.033          848
 1303      726.396          853
 1304      726.759          900
 1305      727.122          940
 1306      727.485          932
 1307      727.847          981
 1308       728.21         1085
 1309      728.572         1183
 1310      728.935         1191
 1311      729.297         1110
 1312      729.659         1015
 1313      730.021          955
 1314      730.382          913
 1315      730.744          891
 1316      731.105          880
 1317      731.467          869
 1318      731.828          860
 1319      732.189          854
 1320       732.55          849
 1321      732.911          845
 1322      733.271          849
 1323      733.632          850
 1324      733.992          849
 1325      734.352          860
 1326      734.713          858
 1327      735.072          856
 1328      735.432          852
 1329      735.792          851
 1330      736.152          856
 1331      736.511          860
 1332       736.87          859
 1333      737.229          860
 1334      737.589          858
 1335      737.947          853
 1336      738.306          855
 1337      738.665          854
 1338      739.023          857
 1339      739.382          859
 1340       739.74          857
 1341      740.098          859
 1342      740.456          858
 1343      740.814          858
 1344      741.171          859
 1345      741.529          860
 1346      741.886          859
 1347      742.244          865
 1348      742.601          867
 1349      742.958          868
 1350      743.314          865
 1351      743.671          849
 1352      744.028          838
 1353      744.384          832
 1354       744.74          827
 1355      745.097          829
 1356      745.453          834
 1357      745.809          839
 1358      746.164          844
 1359       746.52          844
 1360      746.875          845
 1361      747.231          847
 1362      747.586          851
 1363      747.941          844
 1364      748.296          842
 1365      748.651          842
 1366      749.005          842
 1367       749.36          845
 1368      749.714          878
 1369      750.069          902
 1370      750.423          883
 1371      750.777          870
 1372       751.13          867
 1373      751.484          861
 1374      751.838          861
 1375      752.191          866
 1376      752.544          871
 1377      752.897          872
 1378       753.25          869
 1379      753.603          867
 1380      753.956          861
 1381      754.309          855
 1382      754.661          851
 1383      755.013          849
 1384      755.365          852
 1385      755.717          855
 1386      756.069          856
 1387      756.421          861
 1388      756.773          863
 1389      757.124          862
 1390      757.476          866
 1391      757.827          868
 1392      758.178          863
 1393      758.529          859
 1394      758.879          857
 1395       759.23          853
 1396      759.581          854
 1397      759.931          857
 1398      760.281          863
 1399      760.631          854
 1400      760.981          853
 1401      761.331          849
 1402      761.681          845
 1403       762.03          855
 1404      762.379          859
 1405      762.729          851
 1406      763.078          851
 1407      763.427          855
 1408      763.776          857
 1409      764.124          855
 1410      764.473          850
 1411      764.821          849
 1412      765.169          852
 1413      765.517          855
 1414      765.865          851
 1415      766.213          849
 1416      766.561          850
 1417      766.909          851
 1418      767.256          852
 1419      767.603          852
 1420       767.95          852
 1421      768.297          852
 1422      768.644          858
 1423      768.991          866
 1424      769.337          867
 1425      769.684          869
 1426       770.03          867
 1427      770.376          850
 1428      770.722          846
 1429      771.068          852
 1430      771.414          863
 1431      771.759          858
 1432      772.105          848
 1433       772.45          849
 1434      772.795          848
 1435       773.14          846
 1436      773.485          850
 1437       773.83          855
 1438      774.174          867
 1439      774.519          871
 1440      774.863          870
 1441      775.207          875
 1442      775.551          867
 1443      775.895          855
 1444      776.239          856
 1445      776.582          858
 1446      776.926          868
 1447      777.269          867
 1448      777.612          859
 1449      777.955          856
 1450      778.298          875
 1451      778.641          883
 1452      778.983          870
 1453      779.326          860
 1454      779.668          859
 1455       780.01          855
 1456      780.352          853
 1457      780.694          853
 1458      781.036          850
 1459      781.377          851
 1460      781.719          844
 1461       782.06          844
 1462      782.401          843
 1463      782.742          841
 1464      783.083          848
 1465      783.424          857
 1466      783.764          861
 1467      784.105          861
 1468      784.445          867
 1469      784.785          859
 1470      785.125          853
 1471      785.465          857
 1472      785.805          856
 1473      786.144          860
 1474      786.484          871
 1475      786.823          868
 1476      787.162          859
 1477      787.501          855
 1478       787.84          852
 1479      788.178          857
 1480      788.517          861
 1481      788.855          868
 1482      789.194          871
 1483      789.532          873
 1484       789.87          871
 1485      790.208          861
 1486      790.545          855
 1487      790.883          857
 1488       791.22          857
 1489      791.557          855
 1490      791.894          860
 1491      792.231          860
 1492      792.568          855
 1493      792.905          853
 1494      793.241          856
 1495      793.578          857
 1496      793.914          853
 1497       794.25          851
 1498      794.586          850
 1499      794.922          848
 1500      795.257          849
 1501      795.593          851
 1502      795.928          851
 1503      796.263          849
 1504      796.598          861
 1505      796.933          868
 1506      797.268          862
 1507      797.603          861
 1508      797.937          864
 1509      798.271          860
 1510      798.606          856
 1511       798.94          855
 1512      799.274          861
 1513      799.607          864
 1514      799.941          858
 1515      800.274          860
 1516      800.608          861
 1517      800.941          859
 1518      801.274          855
 1519      801.607          857
 1520      801.939          852
 1521      802.272          849
 1522      802.604          851
 1523      802.936          850
 1524      803.269          854
 1525      803.601          853
 1526      803.932          857
 1527      804.264          859
 1528      804.596          855
 1529      804.927          857
 1530      805.258          861
 1531      805.589          862
 1532       805.92          862
 1533      806.251          863
 1534      806.582          862
 1535      806.912          862
 1536      807.242          867
 1537      807.573          857
 1538      807.903          848
 1539      808.232          841
 1540      808.562          853
 1541      808.892          869
 1542      809.221          865
 1543      809.551          864
 1544       809.88          866
 1545      810.209          857
 1546      810.538          851
 1547      810.866          846
 1548      811.195          843
 1549      811.523          845
 1550      811.851          847
 1551       812.18          847
 1552      812.507          845
 1553      812.835          845
 1554      813.163          853
 1555       813.49          853
 1556      813.818          852
 1557      814.145          851
 1558      814.472          849
 1559      814.799          847
 1560      815.126          856
 1561      815.452          874
 1562      815.779          866
 1563      816.105          868
 1564      816.431          869
 1565      816.757          862
 1566      817.083          862
 1567      817.409          857
 1568      817.734          856
 1569       818.06          855
 1570      818.385          858
 1571       818.71          859
 1572      819.035          864
 1573       819.36          861
 1574      819.685          857
 1575      820.009          865
 1576      820.333          866
 1577      820.658          851
 1578      820.982          849
 1579      821.305          857
 1580      821.629          863
 1581      821.953          864
 1582      822.276          863
 1583        822.6          856
 1584      822.923          861
 1585      823.246          867
 1586      823.569          869
 1587      823.891          873
 1588      824.214          873
 1589      824.536          862
 1590      824.858          857
 1591       825.18          858
 1592      825.502          870
 1593      825.824          876
 1594      826.146          871
 1595      826.467          868
 1596      826.789          866
 1597       827.11          866
 1598      827.431          868
 1599      827.752          863
 1600      828.072          864
 1601      828.393          871
 1602      828.713          871
 1603      829.034          871
 1604      829.354          869
 1605      829.674          865
 1606      829.993          849
 1607      830.313          845
 1608      830.633          850
 1609      830.952          849
 1610      831.271          849
 1611       831.59          847
 1612      831.909          849
 1613      832.228          859
 1614      832.546          867
 1615      832.865          856
 1616      833.183          849
 1617      833.501          852
 1618      833.819          842
 1619      834.137          833
 1620      834.455          839
 1621      834.772          855
 1622      835.089          858
 1623      835.407          853
 1624      835.724          849
 1625       836.04          850
 1626      836.357          854
 1627      836.674          852
 1628       836.99          843
 1629      837.306          867
 1630      837.623          893
 1631      837.939          874
 1632      838.254          857
 1633       838.57          854
 1634      838.886          856
 1635      839.201          852
 1636      839.516          855
 1637      839.831          850
 1638      840.146          845
 1639      840.461          848
 1640      840.775          849
 1641       841.09          847
 1642      841.404          854
 1643      841.718          873
 1644      842.032          873
 1645      842.346          858
 1646      842.659          850
 1647      842.973          848
 1648      843.286          850
 1649      843.599          870
 1650      843.912          884
 1651      844.225          872
 1652      844.538          860
 1653      844.851          849
 1654      845.163          850
 1655      845.475          855
 1656      845.787          862
 1657      846.099          868
 1658      846.411          867
 1659      846.723          857
 1660      847.034          851
 1661      847.345          852
 1662      847.657          861
 1663      847.968          861
 1664      848.278          854
 1665      848.589          848
 1666        848.9          860
 1667       849.21          864
 1668       849.52          852
 1669       849.83          841
 1670       850.14          841
 1671       850.45          845
 1672      850.759          852
 1673      851.069          853
 1674      851.378          849
 1675      851.687          841
 1676      851.996          844
 1677      852.305          858
 1678      852.614          859
 1679      852.922          861
 1680       853.23          860
 1681      853.539          855
 1682      853.847          847
 1683      854.154          846
 1684      854.462          847
 1685       854.77          846
 1686      855.077          844
 1687      855.384          851
 1688      855.691          860
 1689      855.998          861
 1690      856.305          858
 1691      856.612          855
 1692      856.918          853
 1693      857.224          860
 1694       857.53          863
 1695      857.836          866
 1696      858.142          861
 1697      858.448          850
 1698      858.753          845
 1699      859.059          844
 1700      859.364          857
 1701      859.669          863
 1702      859.974          857
 1703      860.278          865
 1704      860.583          873
 1705      860.887          867
 1706      861.192          870
 1707      861.496          874
 1708        861.8          861
 1709      862.103          852
 1710      862.407          849
 1711       862.71          853
 1712      863.014          857
 1713      863.317          853
 1714       863.62          861
 1715      863.922          866
 1716      864.225          856
 1717      864.527          842
 1718       864.83          838
 1719      865.132          842
 1720      865.434          855
 1721      865.736          855
 1722      866.037          849
 1723      866.339          855
 1724       866.64          855
 1725      866.941          857
 1726      867.242          867
 1727      867.543          871
 1728      867.844          871
 1729      868.145          867
 1730      868.445          860
 1731      868.745          849
 1732      869.045          846
 1733      869.345          848
 1734      869.645          851
 1735      869.944          850
 1736      870.244          849
 1737      870.543          855
 1738      870.842          854
 1739      871.141          849
 1740       871.44          847
 1741      871.739          839
 1742      872.037          844
 1743      872.335          848
 1744      872.634          854
 1745      872.931          857
 1746      873.229          847
 1747      873.527          838
 1748      873.824          841
 1749      874.122          849
 1750      874.419          845
 1751      874.716          840
 1752      875.013          849
 1753      875.309          850
 1754      875.606          845
 1755      875.902          843
 1756      876.199          840
 1757      876.495          840
 1758       876.79          839
 1759      877.086          832
 1760      877.382          837
 1761      877.677          846
 1762      877.972          848
 1763      878.267          852
 1764      878.562          855
 1765      878.857          859
 1766      879.152          858
 1767      879.446          853
 1768       879.74          848
 1769      880.034          846
 1770      880.328          847
 1771      880.622          842
 1772      880.916          845
 1773      881.209          848
 1774      881.502          851
 1775      881.795          849
 1776      882.088          853
 1777      882.381          860
 1778      882.674          853
 1779      882.966          846
 1780      883.258          852
 1781      883.551          857
 1782      883.843          854
 1783      884.134          861
 1784      884.426          863
 1785      884.717          860
 1786      885.009          861
 1787        885.3          857
 1788      885.591          853
 1789      885.882          852
 1790      886.172          857
 1791      886.463          857
 1792      886.753          859
 1793      887.043          865
 1794      887.333          873
 1795      887.623          874
 1796      887.913          867
 1797      888.202          861
 1798      888.492          868
 1799      888.781          877
 1800       889.07          878
 1801      889.359          876
 1802      889.647          869
 1803      889.936          862
 1804      890.224          866
 1805      890.512          877
 1806        890.8          871
 1807      891.088          861
 1808      891.376          853
 1809      891.663          847
 1810      891.951          849
 1811      892.238          848
 1812      892.525          847
 1813      892.812          845
 1814      893.099          848
 1815      893.385          848
 1816      893.671          850
 1817      893.958          852
 1818      894.244          850
 1819       894.53          848
 1820      894.815          848
 1821      895.101          848
 1822      895.386          849
 1823      895.671          850
 1824      895.956          854
 1825      896.241          857
 1826      896.526          856
 1827       896.81          850
 1828      897.095          849
 1829      897.379          842
 1830      897.663          830
 1831      897.947          826
 1832      898.231          833
 1833      898.514          839
 1834      898.798          846
 1835      899.081          845
 1836      899.364          847
 1837      899.647          843
 1838      899.929          841
 1839      900.212          850
 1840      900.494          854
 1841      900.776          850
 1842      901.058          847
 1843       901.34          851
 1844      901.622          856
 1845      901.904          857
 1846      902.185          858
 1847      902.466          863
 1848      902.747          872
 1849      903.028          884
 1850      903.309          882
 1851      903.589          871
 1852       903.87          867
 1853       904.15          869
 1854       904.43          866
 1855       904.71          863
 1856      904.989          869
 1857      905.269          872
 1858      905.548          869
 1859      905.827          866
 1860      906.106          866
 1861      906.385          866
 1862      906.664          864
 1863      906.942          861
 1864      907.221          852
 1865      907.499          848
 1866      907.777          854
 1867      908.055          863
 1868      908.332          866
 1869       908.61          875
 1870      908.887          880
 1871      909.164          875
 1872      909.441          871
 1873      909.718          865
 1874      909.995          858
 1875      910.271          850
 1876      910.548          855
 1877      910.824          866
 1878        911.1          861
 1879      911.375          854
 1880      911.651          850
 1881      911.927          845
 1882      912.202          840
 1883      912.477          842
 1884      912.752          846
 1885      913.027          844
 1886      913.301          839
 1887      913.576          843
 1888       913.85          842
 1889      914.124          840
 1890      914.398          845
 1891      914.672          846
 1892      914.945          845
 1893      915.219          847
 1894      915.492          843
 1895      915.765          853
 1896      916.038          857
 1897      916.311          843
 1898      916.583          841
 1899      916.856          842
 1900      917.128          847
 1901        917.4          859
 1902      917.672          872
 1903      917.944          865
 1904      918.215          863
 1905      918.486          867
 1906      918.758          858
 1907      919.029          852
 1908      919.299          860
 1909       919.57          858
 1910      919.841          859
 1911      920.111          857
 1912      920.381          847
 1913      920.651          842
 1914      920.921          851
 1915      921.191          866
 1916       921.46          868
 1917      921.729          871
 1918      921.999          861
 1919      922.268          856
 1920      922.536          859
 1921      922.805          854
 1922      923.073          859
 1923      923.342          861
 1924       923.61          853
 1925      923.878          855
 1926      924.145          852
 1927      924.413          847
 1928       924.68          858
 1929      924.948          860
 1930      925.215          854
 1931      925.482          852
 1932      925.748          856
 1933      926.015          855
 1934      926.281          849
 1935      926.547          854
 1936      926.813          853
 1937      927.079          852
 1938      927.345          853
 1939       927.61          856
 1940      927.876          860
 1941      928.141          856
 1942      928.406          856
 1943      928.671          863
 1944      928.935          861
 1945        929.2          855
 1946      929.464          853
 1947      929.728          865
 1948      929.992          865
 1949      930.256          853
 1950       930.52          845
 1951      930.783          845
 1952      931.046          849
 1953      931.309          856
 1954      931.572          865
 1955      931.835          868
 1956      932.097          871
 1957       932.36          870
 1958      932.622          873
 1959      932.884          872
 1960      933.146          867
 1961      933.408          869
 1962      933.669          865
 1963       933.93          851
 1964      934.192          853
 1965      934.453          857
 1966      934.713          855
 1967      934.974          855
 1968      935.234          853
 1969      935.495          849
 1970      935.755          845
 1971      936.015          844
 1972      936.274          845
 1973      936.534          853
 1974      936.793          852
 1975      937.053          856
 1976      937.312          862
 1977      937.571          859
 1978      937.829          858
 1979      938.088          861
 1980      938.346          859
 1981      938.604          859
 1982      938.862          859
 1983       939.12          862
 1984      939.378          863
 1985      939.635          855
 1986      939.893          845
 1987       940.15          842
 1988      940.407          847
 1989      940.663          854
 1990       940.92          861
 1991      941.176          857
 1992      941.433          857
 1993      941.689          859
 1994      941.944          858
 1995        942.2          865
 1996      942.456          864
 1997      942.711          852
 1998      942.966          845
 1999      943.221          847
 2000      943.476          856
 2001      943.731          858
 2002      943.985          854
 2003      944.239          854
 2004      944.493          861
 2005      944.747          861
 2006      945.001          857
 2007      945.255          865
 2008      945.508          856
 2009      945.761          844
 2010      946.014          847
 2011      946.267          850
 2012       946.52          847
 2013      946.772          854
 2014      947.025          863
 2015      947.277          868
 2016      947.529          875
 2017      947.781          873
 2018      948.032          861
 2019      948.284          858
 2020      948.535          857
 2021      948.786          845
 2022      949.037          844
 2023      949.288          851
 2024      949.538          849
 2025      949.789          853
 2026      950.039          854
 2027      950.289          848
 2028      950.539          843
 2029      950.788          853
 2030      951.038          855
 2031      951.287          854
 2032      951.536          856
 2033      951.785          858
 2034      952.034          858
 2035      952.282          858
 2036      952.531          864
 2037      952.779          866
 2038      953.027          865
 2039      953.275          861
 2040      953.523          859
 2041       953.77          853
 2042      954.017          858
 2043      954.264          859
 2044      954.511          853
 2045      954.758          847
 2046      955.005          846
 2047      955.251          847
