scansci Spectrometer Data File
--- Measurement Setting ---
Type: Sample Spectrum
Date: Wed May 26 15:36:07 2021
User: (Reserved by scansci)
Serial: (Reserved by scansci)
Channel: No. 11
Integration Time: 222
Average: 1
Boxcar: 0
Electrical Dark: No-corrected
Time Normalize: (Reserved by scansci)
Dual-beam: (Reserved by scansci)
Reference Ch: (Reserved by scansci)
--- Measurement Data ---
Pixel   Wavelength   Intensity
    0        162.5          805
    1      162.985          815
    2      163.469          819
    3      163.954          824
    4      164.439          830
    5      164.923          832
    6      165.408          825
    7      165.892          817
    8      166.377          810
    9      166.861          818
   10      167.345          829
   11       167.83          819
   12      168.314          817
   13      168.798          823
   14      169.282          828
   15      169.766          831
   16       170.25          827
   17      170.734          826
   18      171.218          824
   19      171.702          821
   20      172.185          822
   21      172.669          825
   22      173.153          819
   23      173.636          822
   24       174.12          818
   25      174.603          849
   26      175.087          866
   27       175.57          852
   28      176.053          848
   29      176.537          849
   30       177.02          837
   31      177.503          824
   32      177.986          818
   33      178.469          815
   34      178.952          828
   35      179.435          836
   36      179.918          844
   37      180.401          855
   38      180.884          845
   39      181.366          837
   40      181.849          838
   41      182.332          842
   42      182.814          841
   43      183.297          837
   44      183.779          835
   45      184.262          830
   46      184.744          821
   47      185.226          820
   48      185.708          825
   49      186.191          826
   50      186.673          824
   51      187.155          821
   52      187.637          821
   53      188.119          827
   54        188.6          829
   55      189.082          827
   56      189.564          823
   57      190.046          820
   58      190.527          830
   59      191.009          830
   60      191.491          826
   61      191.972          825
   62      192.454          829
   63      192.935          835
   64      193.416          844
   65      193.897          849
   66      194.379          846
   67       194.86          844
   68      195.341          843
   69      195.822          837
   70      196.303          830
   71      196.784          835
   72      197.265          841
   73      197.746          830
   74      198.226          824
   75      198.707          834
   76      199.188          851
   77      199.668          855
   78      200.149          847
   79      200.629          842
   80       201.11          851
   81       201.59          841
   82       202.07          826
   83       202.55          822
   84      203.031          826
   85      203.511          820
   86      203.991          820
   87      204.471          821
   88      204.951          818
   89      205.431          821
   90       205.91          824
   91       206.39          819
   92       206.87          813
   93      207.349          813
   94      207.829          814
   95      208.309          811
   96      208.788          812
   97      209.267          817
   98      209.747          818
   99      210.226          817
  100      210.705          823
  101      211.185          837
  102      211.664          841
  103      212.143          839
  104      212.622          838
  105      213.101          834
  106      213.579          828
  107      214.058          832
  108      214.537          829
  109      215.016          829
  110      215.494          829
  111      215.973          830
  112      216.452          833
  113       216.93          830
  114      217.408          832
  115      217.887          829
  116      218.365          827
  117      218.843          828
  118      219.321          833
  119      219.799          837
  120      220.278          837
  121      220.755          845
  122      221.233          848
  123      221.711          840
  124      222.189          834
  125      222.667          835
  126      223.144          833
  127      223.622          827
  128        224.1          836
  129      224.577          844
  130      225.055          839
  131      225.532          843
  132      226.009          841
  133      226.486          827
  134      226.964          821
  135      227.441          815
  136      227.918          811
  137      228.395          808
  138      228.872          807
  139      229.349          814
  140      229.826          828
  141      230.302          828
  142      230.779          827
  143      231.256          827
  144      231.732          829
  145      232.209          822
  146      232.685          821
  147      233.162          817
  148      233.638          812
  149      234.114          813
  150       234.59          809
  151      235.066          823
  152      235.543          825
  153      236.019          819
  154      236.495          819
  155       236.97          813
  156      237.446          806
  157      237.922          811
  158      238.398          818
  159      238.873          819
  160      239.349          825
  161      239.824          834
  162        240.3          833
  163      240.775          823
  164      241.251          823
  165      241.726          829
  166      242.201          842
  167      242.676          847
  168      243.151          831
  169      243.626          826
  170      244.101          839
  171      244.576          836
  172      245.051          833
  173      245.526          828
  174          246          828
  175      246.475          829
  176       246.95          835
  177      247.424          833
  178      247.899          828
  179      248.373          821
  180      248.847          819
  181      249.321          819
  182      249.796          823
  183       250.27          829
  184      250.744          820
  185      251.218          825
  186      251.692          835
  187      252.166          834
  188      252.639          833
  189      253.113          837
  190      253.587          836
  191       254.06          831
  192      254.534          828
  193      255.007          823
  194      255.481          821
  195      255.954          831
  196      256.427          833
  197      256.901          823
  198      257.374          820
  199      257.847          824
  200       258.32          825
  201      258.793          828
  202      259.266          830
  203      259.739          834
  204      260.211          834
  205      260.684          837
  206      261.157          840
  207      261.629          837
  208      262.102          830
  209      262.574          824
  210      263.046          831
  211      263.519          832
  212      263.991          827
  213      264.463          829
  214      264.935          825
  215      265.407          824
  216      265.879          828
  217      266.351          824
  218      266.823          815
  219      267.295          812
  220      267.766          813
  221      268.238          819
  222       268.71          824
  223      269.181          830
  224      269.653          823
  225      270.124          816
  226      270.595          813
  227      271.066          815
  228      271.538          816
  229      272.009          814
  230       272.48          817
  231      272.951          823
  232      273.422          821
  233      273.892          832
  234      274.363          837
  235      274.834          832
  236      275.305          829
  237      275.775          828
  238      276.246          822
  239      276.716          823
  240      277.186          827
  241      277.657          826
  242      278.127          828
  243      278.597          828
  244      279.067          825
  245      279.537          824
  246      280.007          826
  247      280.477          824
  248      280.947          825
  249      281.417          830
  250      281.886          830
  251      282.356          825
  252      282.825          825
  253      283.295          825
  254      283.764          827
  255      284.234          828
  256      284.703          830
  257      285.172          827
  258      285.641          816
  259       286.11          811
  260      286.579          818
  261      287.048          826
  262      287.517          822
  263      287.986          817
  264      288.454          822
  265      288.923          822
  266      289.392          825
  267       289.86          825
  268      290.329          822
  269      290.797          819
  270      291.265          826
  271      291.734          839
  272      292.202          837
  273       292.67          829
  274      293.138          822
  275      293.606          822
  276      294.074          821
  277      294.541          820
  278      295.009          822
  279      295.477          821
  280      295.944          821
  281      296.412          827
  282      296.879          827
  283      297.347          829
  284      297.814          827
  285      298.281          821
  286      298.749          828
  287      299.216          836
  288      299.683          833
  289       300.15          833
  290      300.616          830
  291      301.083          829
  292       301.55          827
  293      302.017          839
  294      302.483          841
  295       302.95          836
  296      303.416          832
  297      303.883          831
  298      304.349          836
  299      304.815          831
  300      305.281          835
  301      305.748          833
  302      306.214          836
  303       306.68          836
  304      307.146          835
  305      307.611          835
  306      308.077          834
  307      308.543          834
  308      309.008          828
  309      309.474          821
  310      309.939          815
  311      310.405          817
  312       310.87          826
  313      311.335          839
  314        311.8          832
  315      312.266          830
  316      312.731          833
  317      313.196          821
  318       313.66          815
  319      314.125          824
  320       314.59          821
  321      315.055          828
  322      315.519          834
  323      315.984          833
  324      316.448          831
  325      316.913          830
  326      317.377          830
  327      317.841          830
  328      318.305          827
  329      318.769          828
  330      319.233          819
  331      319.697          815
  332      320.161          817
  333      320.625          833
  334      321.089          840
  335      321.552          828
  336      322.016          828
  337      322.479          841
  338      322.943          841
  339      323.406          836
  340      323.869          833
  341      324.333          825
  342      324.796          820
  343      325.259          820
  344      325.722          819
  345      326.185          812
  346      326.647          810
  347       327.11          822
  348      327.573          826
  349      328.035          819
  350      328.498          827
  351       328.96          838
  352      329.423          838
  353      329.885          834
  354      330.347          827
  355       330.81          827
  356      331.272          826
  357      331.734          823
  358      332.196          825
  359      332.657          827
  360      333.119          825
  361      333.581          826
  362      334.043          829
  363      334.504          828
  364      334.966          835
  365      335.427          840
  366      335.888          834
  367       336.35          829
  368      336.811          840
  369      337.272          851
  370      337.733          836
  371      338.194          832
  372      338.655          833
  373      339.115          832
  374      339.576          830
  375      340.037          829
  376      340.497          834
  377      340.958          837
  378      341.418          827
  379      341.879          816
  380      342.339          807
  381      342.799          815
  382      343.259          840
  383      343.719          853
  384      344.179          852
  385      344.639          845
  386      345.099          830
  387      345.559          826
  388      346.018          820
  389      346.478          818
  390      346.937          818
  391      347.397          813
  392      347.856          813
  393      348.315          817
  394      348.774          825
  395      349.234          830
  396      349.693          827
  397      350.152          830
  398       350.61          825
  399      351.069          830
  400      351.528          839
  401      351.987          832
  402      352.445          826
  403      352.904          820
  404      353.362          811
  405       353.82          802
  406      354.279          802
  407      354.737          821
  408      355.195          835
  409      355.653          827
  410      356.111          825
  411      356.569          827
  412      357.027          819
  413      357.484          808
  414      357.942          807
  415      358.399          814
  416      358.857          816
  417      359.314          818
  418      359.772          824
  419      360.229          830
  420      360.686          830
  421      361.143          830
  422        361.6          828
  423      362.057          826
  424      362.514          825
  425      362.971          827
  426      363.427          817
  427      363.884          816
  428       364.34          827
  429      364.797          837
  430      365.253          836
  431      365.709          835
  432      366.166          841
  433      366.622          850
  434      367.078          856
  435      367.534          857
  436       367.99          849
  437      368.445          840
  438      368.901          827
  439      369.357          826
  440      369.812          820
  441      370.268          812
  442      370.723          815
  443      371.179          816
  444      371.634          810
  445      372.089          809
  446      372.544          816
  447      372.999          833
  448      373.454          844
  449      373.909          838
  450      374.364          827
  451      374.818          820
  452      375.273          820
  453      375.727          817
  454      376.182          821
  455      376.636          827
  456       377.09          825
  457      377.545          826
  458      377.999          819
  459      378.453          820
  460      378.907          832
  461      379.361          832
  462      379.814          831
  463      380.268          833
  464      380.722          839
  465      381.175          834
  466      381.629          824
  467      382.082          823
  468      382.535          826
  469      382.989          835
  470      383.442          847
  471      383.895          852
  472      384.348          848
  473      384.801          836
  474      385.253          826
  475      385.706          822
  476      386.159          822
  477      386.611          831
  478      387.064          833
  479      387.516          825
  480      387.968          822
  481      388.421          821
  482      388.873          816
  483      389.325          818
  484      389.777          826
  485      390.229          830
  486      390.681          825
  487      391.132          827
  488      391.584          825
  489      392.035          823
  490      392.487          828
  491      392.938          838
  492       393.39          843
  493      393.841          840
  494      394.292          830
  495      394.743          834
  496      395.194          837
  497      395.645          831
  498      396.096          824
  499      396.546          826
  500      396.997          833
  501      397.448          829
  502      397.898          826
  503      398.349          833
  504      398.799          832
  505      399.249          827
  506      399.699          828
  507      400.149          824
  508      400.599          826
  509      401.049          832
  510      401.499          828
  511      401.949          839
  512      402.398          837
  513      402.848          828
  514      403.297          823
  515      403.747          823
  516      404.196          821
  517      404.645          824
  518      405.094          826
  519      405.543          820
  520      405.992          823
  521      406.441          825
  522       406.89          823
  523      407.339          816
  524      407.787          822
  525      408.236          820
  526      408.684          819
  527      409.132          820
  528      409.581          832
  529      410.029          845
  530      410.477          850
  531      410.925          843
  532      411.373          829
  533      411.821          833
  534      412.269          827
  535      412.716          833
  536      413.164          855
  537      413.611          860
  538      414.059          841
  539      414.506          835
  540      414.953          836
  541        415.4          844
  542      415.847          844
  543      416.294          844
  544      416.741          852
  545      417.188          848
  546      417.635          844
  547      418.081          838
  548      418.528          838
  549      418.974          842
  550      419.421          842
  551      419.867          840
  552      420.313          833
  553      420.759          836
  554      421.205          829
  555      421.651          828
  556      422.097          829
  557      422.543          833
  558      422.989          840
  559      423.434          841
  560       423.88          851
  561      424.325          854
  562       424.77          849
  563      425.216          848
  564      425.661          867
  565      426.106          973
  566      426.551         1171
  567      426.996         1310
  568       427.44         1319
  569      427.885         1239
  570       428.33         1127
  571      428.774         1031
  572      429.219          969
  573      429.663          945
  574      430.107          932
  575      430.551         1036
  576      430.996         1349
  577       431.44         1606
  578      431.883         1622
  579      432.327         1496
  580      432.771         1305
  581      433.215         1139
  582      433.658         1032
  583      434.102          971
  584      434.545          942
  585      434.988          948
  586      435.431          977
  587      435.875         1000
  588      436.318         1044
  589      436.761         1117
  590      437.203         1153
  591      437.646         1139
  592      438.089         1080
  593      438.531         1011
  594      438.974          970
  595      439.416          941
  596      439.859          920
  597      440.301          905
  598      440.743          884
  599      441.185          879
  600      441.627          877
  601      442.069          863
  602       442.51          850
  603      442.952          846
  604      443.394          844
  605      443.835          852
  606      444.277          897
  607      444.718          969
  608      445.159         1065
  609        445.6         1157
  610      446.041         1184
  611      446.482         1151
  612      446.923         1077
  613      447.364          992
  614      447.804          934
  615      448.245          900
  616      448.685          893
  617      449.126          944
  618      449.566         1016
  619      450.006         1042
  620      450.447         1023
  621      450.887          978
  622      451.326          927
  623      451.766          891
  624      452.206          869
  625      452.646          864
  626      453.085          853
  627      453.525          842
  628      453.964          836
  629      454.403          837
  630      454.843          836
  631      455.282          838
  632      455.721          841
  633       456.16          845
  634      456.599          843
  635      457.037          841
  636      457.476          839
  637      457.915          834
  638      458.353          827
  639      458.791          825
  640       459.23          825
  641      459.668          827
  642      460.106          826
  643      460.544          824
  644      460.982          829
  645       461.42          839
  646      461.857          841
  647      462.295          836
  648      462.733          833
  649       463.17          837
  650      463.607          842
  651      464.045          847
  652      464.482          845
  653      464.919          835
  654      465.356          823
  655      465.793          815
  656       466.23          813
  657      466.666          822
  658      467.103          825
  659      467.539          829
  660      467.976          832
  661      468.412          833
  662      468.848          832
  663      469.284          828
  664       469.72          832
  665      470.156          842
  666      470.592          841
  667      471.028          831
  668      471.464          825
  669      471.899          825
  670      472.335          834
  671       472.77          833
  672      473.205          837
  673      473.641          846
  674      474.076          840
  675      474.511          838
  676      474.946          841
  677       475.38          837
  678      475.815          833
  679       476.25          830
  680      476.684          827
  681      477.119          827
  682      477.553          826
  683      477.987          822
  684      478.421          821
  685      478.856          828
  686      479.289          835
  687      479.723          837
  688      480.157          839
  689      480.591          839
  690      481.024          836
  691      481.458          840
  692      481.891          833
  693      482.324          827
  694      482.758          833
  695      483.191          830
  696      483.624          828
  697      484.057          827
  698      484.489          833
  699      484.922          830
  700      485.355          835
  701      485.787          840
  702       486.22          841
  703      486.652          849
  704      487.084          848
  705      487.516          836
  706      487.948          833
  707       488.38          835
  708      488.812          832
  709      489.244          830
  710      489.676          829
  711      490.107          826
  712      490.539          817
  713       490.97          809
  714      491.401          814
  715      491.832          816
  716      492.263          820
  717      492.694          826
  718      493.125          823
  719      493.556          824
  720      493.987          828
  721      494.417          830
  722      494.848          826
  723      495.278          832
  724      495.708          839
  725      496.139          841
  726      496.569          833
  727      496.999          827
  728      497.429          835
  729      497.858          838
  730      498.288          832
  731      498.718          832
  732      499.147          836
  733      499.577          844
  734      500.006          843
  735      500.435          835
  736      500.864          829
  737      501.293          827
  738      501.722          828
  739      502.151          828
  740       502.58          824
  741      503.008          832
  742      503.437          838
  743      503.865          829
  744      504.293          826
  745      504.722          831
  746       505.15          825
  747      505.578          825
  748      506.006          827
  749      506.434          825
  750      506.861          825
  751      507.289          823
  752      507.716          824
  753      508.144          822
  754      508.571          818
  755      508.998          823
  756      509.425          828
  757      509.852          825
  758      510.279          820
  759      510.706          823
  760      511.133          825
  761       511.56          825
  762      511.986          821
  763      512.412          819
  764      512.839          830
  765      513.265          839
  766      513.691          837
  767      514.117          844
  768      514.543          851
  769      514.969          851
  770      515.395          845
  771       515.82          848
  772      516.246          857
  773      516.671          862
  774      517.096          848
  775      517.522          834
  776      517.947          823
  777      518.372          819
  778      518.797          818
  779      519.222          821
  780      519.646          824
  781      520.071          842
  782      520.495          847
  783       520.92          842
  784      521.344          839
  785      521.768          833
  786      522.192          827
  787      522.616          828
  788       523.04          840
  789      523.464          844
  790      523.888          844
  791      524.311          845
  792      524.735          837
  793      525.158          838
  794      525.581          845
  795      526.005          839
  796      526.428          834
  797      526.851          840
  798      527.274          853
  799      527.696          858
  800      528.119          853
  801      528.542          842
  802      528.964          820
  803      529.386          818
  804      529.809          819
  805      530.231          825
  806      530.653          823
  807      531.075          826
  808      531.497          832
  809      531.918          827
  810       532.34          825
  811      532.761          822
  812      533.183          820
  813      533.604          824
  814      534.025          831
  815      534.447          836
  816      534.868          833
  817      535.289          836
  818      535.709          836
  819       536.13          838
  820      536.551          838
  821      536.971          844
  822      537.392          843
  823      537.812          840
  824      538.232          837
  825      538.652          834
  826      539.072          839
  827      539.492          836
  828      539.912          836
  829      540.331          834
  830      540.751          833
  831       541.17          834
  832       541.59          836
  833      542.009          844
  834      542.428          845
  835      542.847          841
  836      543.266          842
  837      543.685          844
  838      544.104          850
  839      544.522          847
  840      544.941          844
  841      545.359          848
  842      545.778          845
  843      546.196          834
  844      546.614          833
  845      547.032          828
  846       547.45          827
  847      547.867          828
  848      548.285          829
  849      548.703          832
  850       549.12          837
  851      549.538          849
  852      549.955          841
  853      550.372          841
  854      550.789          844
  855      551.206          841
  856      551.623          839
  857      552.039          837
  858      552.456          837
  859      552.873          841
  860      553.289          841
  861      553.705          842
  862      554.121          844
  863      554.537          852
  864      554.953          911
  865      555.369         1052
  866      555.785         1359
  867      556.201         1852
  868      556.616         2211
  869      557.032         2225
  870      557.447         1988
  871      557.862         1654
  872      558.277         1358
  873      558.692         1156
  874      559.107         1029
  875      559.522          945
  876      559.937          904
  877      560.351          877
  878      560.766          858
  879       561.18          854
  880      561.595          843
  881      562.009          832
  882      562.423          835
  883      562.837          837
  884       563.25          837
  885      563.664          843
  886      564.078          865
  887      564.491          878
  888      564.905          869
  889      565.318          856
  890      565.731          847
  891      566.144          850
  892      566.557          852
  893       566.97          847
  894      567.383          841
  895      567.795          843
  896      568.208          848
  897       568.62          841
  898      569.033          836
  899      569.445          837
  900      569.857          840
  901      570.269          834
  902      570.681          830
  903      571.093          832
  904      571.504          832
  905      571.916          832
  906      572.327          829
  907      572.739          839
  908       573.15          852
  909      573.561          848
  910      573.972          832
  911      574.383          822
  912      574.794          819
  913      575.204          827
  914      575.615          823
  915      576.025          817
  916      576.436          814
  917      576.846          817
  918      577.256          829
  919      577.666          827
  920      578.076          822
  921      578.486          828
  922      578.896          832
  923      579.305          835
  924      579.715          836
  925      580.124          828
  926      580.533          826
  927      580.942          832
  928      581.351          843
  929       581.76          851
  930      582.169          883
  931      582.578          907
  932      582.986          889
  933      583.395          869
  934      583.803          856
  935      584.212          847
  936       584.62          847
  937      585.028          855
  938      585.436          923
  939      585.843         1226
  940      586.251         1786
  941      586.659         2225
  942      587.066         2257
  943      587.474         1992
  944      587.881         1636
  945      588.288         1347
  946      588.695         1160
  947      589.102         1040
  948      589.509          967
  949      589.915          918
  950      590.322          895
  951      590.728          881
  952      591.135          869
  953      591.541          860
  954      591.947          863
  955      592.353          870
  956      592.759          856
  957      593.165          843
  958      593.571          834
  959      593.976          837
  960      594.382          847
  961      594.787          850
  962      595.192          849
  963      595.597          843
  964      596.002          833
  965      596.407          832
  966      596.812          830
  967      597.217          824
  968      597.621          825
  969      598.026          852
  970       598.43          870
  971      598.834          868
  972      599.238          864
  973      599.642          853
  974      600.046          839
  975       600.45          840
  976      600.854          852
  977      601.257          853
  978      601.661          848
  979      602.064          848
  980      602.467          847
  981       602.87          844
  982      603.273          830
  983      603.676          832
  984      604.079          834
  985      604.481          837
  986      604.884          842
  987      605.286          839
  988      605.689          840
  989      606.091          849
  990      606.493          850
  991      606.895          841
  992      607.297          838
  993      607.698          841
  994        608.1          844
  995      608.501          834
  996      608.903          823
  997      609.304          828
  998      609.705          827
  999      610.106          818
 1000      610.507          823
 1001      610.908          825
 1002      611.308          815
 1003      611.709          824
 1004      612.109          833
 1005       612.51          836
 1006       612.91          837
 1007       613.31          843
 1008       613.71          841
 1009       614.11          838
 1010       614.51          826
 1011      614.909          826
 1012      615.309          863
 1013      615.708          882
 1014      616.108          865
 1015      616.507          850
 1016      616.906          843
 1017      617.305          834
 1018      617.704          832
 1019      618.102          827
 1020      618.501          818
 1021      618.899          814
 1022      619.298          817
 1023      619.696          828
 1024      620.094          836
 1025      620.492          836
 1026       620.89          832
 1027      621.288          829
 1028      621.686          829
 1029      622.083          835
 1030       622.48          826
 1031      622.878          825
 1032      623.275          837
 1033      623.672          837
 1034      624.069          830
 1035      624.466          832
 1036      624.863          832
 1037      625.259          831
 1038      625.656          827
 1039      626.052          828
 1040      626.448          847
 1041      626.844          848
 1042      627.241          825
 1043      627.636          819
 1044      628.032          818
 1045      628.428          819
 1046      628.823          823
 1047      629.219          824
 1048      629.614          825
 1049      630.009          813
 1050      630.404          805
 1051      630.799          809
 1052      631.194          820
 1053      631.589          833
 1054      631.984          830
 1055      632.378          834
 1056      632.772          830
 1057      633.167          827
 1058      633.561          824
 1059      633.955          827
 1060      634.349          824
 1061      634.743          823
 1062      635.136          819
 1063       635.53          820
 1064      635.923          824
 1065      636.316          823
 1066       636.71          824
 1067      637.103          825
 1068      637.496          821
 1069      637.888          817
 1070      638.281          811
 1071      638.674          810
 1072      639.066          809
 1073      639.459          807
 1074      639.851          813
 1075      640.243          827
 1076      640.635          833
 1077      641.027          836
 1078      641.419          842
 1079       641.81          845
 1080      642.202          837
 1081      642.593          840
 1082      642.984          836
 1083      643.375          832
 1084      643.766          835
 1085      644.157          846
 1086      644.548          862
 1087      644.939          872
 1088      645.329          873
 1089       645.72          871
 1090       646.11          853
 1091        646.5          837
 1092       646.89          835
 1093       647.28          830
 1094       647.67          823
 1095       648.06          819
 1096      648.449          826
 1097      648.839          832
 1098      649.228          819
 1099      649.617          817
 1100      650.007          821
 1101      650.396          823
 1102      650.784          838
 1103      651.173          852
 1104      651.562          841
 1105       651.95          827
 1106      652.339          827
 1107      652.727          837
 1108      653.115          831
 1109      653.503          826
 1110      653.891          819
 1111      654.279          815
 1112      654.666          821
 1113      655.054          822
 1114      655.441          821
 1115      655.828          826
 1116      656.216          821
 1117      656.603          820
 1118      656.989          821
 1119      657.376          823
 1120      657.763          817
 1121      658.149          814
 1122      658.536          819
 1123      658.922          824
 1124      659.308          825
 1125      659.694          824
 1126       660.08          816
 1127      660.466          808
 1128      660.852          808
 1129      661.237          816
 1130      661.623          821
 1131      662.008          825
 1132      662.393          828
 1133      662.778          822
 1134      663.163          811
 1135      663.548          803
 1136      663.933          808
 1137      664.317          819
 1138      664.702          823
 1139      665.086          824
 1140       665.47          825
 1141      665.854          817
 1142      666.238          815
 1143      666.622          816
 1144      667.006          813
 1145      667.389          808
 1146      667.773          811
 1147      668.156          810
 1148      668.539          813
 1149      668.923          816
 1150      669.305          817
 1151      669.688          822
 1152      670.071          823
 1153      670.454          819
 1154      670.836          816
 1155      671.218          816
 1156      671.601          823
 1157      671.983          824
 1158      672.365          817
 1159      672.747          818
 1160      673.128          827
 1161       673.51          822
 1162      673.891          814
 1163      674.273          825
 1164      674.654          836
 1165      675.035          829
 1166      675.416          819
 1167      675.797          814
 1168      676.177          812
 1169      676.558          813
 1170      676.938          805
 1171      677.319          810
 1172      677.699          819
 1173      678.079          816
 1174      678.459          814
 1175      678.839          815
 1176      679.219          817
 1177      679.598          819
 1178      679.978          816
 1179      680.357          816
 1180      680.736          826
 1181      681.115          827
 1182      681.494          831
 1183      681.873          838
 1184      682.252          831
 1185       682.63          826
 1186      683.009          826
 1187      683.387          838
 1188      683.765          843
 1189      684.143          828
 1190      684.521          843
 1191      684.899          861
 1192      685.277          849
 1193      685.654          841
 1194      686.032          842
 1195      686.409          844
 1196      686.786          840
 1197      687.163          833
 1198       687.54          825
 1199      687.917          817
 1200      688.294          816
 1201       688.67          818
 1202      689.046          824
 1203      689.423          824
 1204      689.799          827
 1205      690.175          841
 1206      690.551          836
 1207      690.927          825
 1208      691.302          853
 1209      691.678          877
 1210      692.053          856
 1211      692.428          848
 1212      692.804          835
 1213      693.179          827
 1214      693.553          834
 1215      693.928          836
 1216      694.303          834
 1217      694.677          831
 1218      695.052          830
 1219      695.426          831
 1220        695.8          829
 1221      696.174          829
 1222      696.548          829
 1223      696.921          819
 1224      697.295          812
 1225      697.669          813
 1226      698.042          815
 1227      698.415          815
 1228      698.788          824
 1229      699.161          823
 1230      699.534          830
 1231      699.907          853
 1232      700.279          850
 1233      700.652          838
 1234      701.024          834
 1235      701.396          832
 1236      701.768          830
 1237       702.14          821
 1238      702.512          808
 1239      702.883          815
 1240      703.255          826
 1241      703.626          829
 1242      703.998          826
 1243      704.369          821
 1244       704.74          821
 1245      705.111          823
 1246      705.481          821
 1247      705.852          821
 1248      706.222          818
 1249      706.593          817
 1250      706.963          817
 1251      707.333          808
 1252      707.703          808
 1253      708.073          823
 1254      708.442          829
 1255      708.812          823
 1256      709.181          823
 1257      709.551          819
 1258       709.92          818
 1259      710.289          820
 1260      710.658          819
 1261      711.027          820
 1262      711.395          820
 1263      711.764          817
 1264      712.132          819
 1265        712.5          819
 1266      712.869          815
 1267      713.236          817
 1268      713.604          824
 1269      713.972          825
 1270       714.34          824
 1271      714.707          820
 1272      715.074          823
 1273      715.442          829
 1274      715.809          824
 1275      716.176          826
 1276      716.542          817
 1277      716.909          811
 1278      717.276          830
 1279      717.642          831
 1280      718.008          823
 1281      718.374          823
 1282       718.74          829
 1283      719.106          827
 1284      719.472          820
 1285      719.838          822
 1286      720.203          825
 1287      720.568          823
 1288      720.934          823
 1289      721.299          833
 1290      721.664          830
 1291      722.029          833
 1292      722.393          840
 1293      722.758          830
 1294      723.122          820
 1295      723.486          824
 1296      723.851          828
 1297      724.215          830
 1298      724.578          827
 1299      724.942          823
 1300      725.306          821
 1301      725.669          819
 1302      726.033          825
 1303      726.396          830
 1304      726.759          879
 1305      727.122          914
 1306      727.485          886
 1307      727.847          864
 1308       728.21          849
 1309      728.572          841
 1310      728.935          833
 1311      729.297          837
 1312      729.659          839
 1313      730.021          842
 1314      730.382          832
 1315      730.744          824
 1316      731.105          813
 1317      731.467          809
 1318      731.828          813
 1319      732.189          816
 1320       732.55          828
 1321      732.911          832
 1322      733.271          826
 1323      733.632          824
 1324      733.992          820
 1325      734.352          821
 1326      734.713          827
 1327      735.072          827
 1328      735.432          823
 1329      735.792          821
 1330      736.152          816
 1331      736.511          821
 1332       736.87          825
 1333      737.229          828
 1334      737.589          828
 1335      737.947          829
 1336      738.306          827
 1337      738.665          823
 1338      739.023          817
 1339      739.382          824
 1340       739.74          828
 1341      740.098          823
 1342      740.456          831
 1343      740.814          842
 1344      741.171          841
 1345      741.529          833
 1346      741.886          832
 1347      742.244          827
 1348      742.601          822
 1349      742.958          820
 1350      743.314          814
 1351      743.671          813
 1352      744.028          817
 1353      744.384          813
 1354       744.74          806
 1355      745.097          807
 1356      745.453          812
 1357      745.809          817
 1358      746.164          824
 1359       746.52          830
 1360      746.875          834
 1361      747.231          834
 1362      747.586          836
 1363      747.941          846
 1364      748.296          839
 1365      748.651          822
 1366      749.005          819
 1367       749.36          832
 1368      749.714          854
 1369      750.069          861
 1370      750.423          843
 1371      750.777          833
 1372       751.13          837
 1373      751.484          841
 1374      751.838          842
 1375      752.191          845
 1376      752.544          835
 1377      752.897          835
 1378       753.25          841
 1379      753.603          844
 1380      753.956          845
 1381      754.309          849
 1382      754.661          841
 1383      755.013          846
 1384      755.365          866
 1385      755.717          915
 1386      756.069         1073
 1387      756.421         1437
 1388      756.773         2031
 1389      757.124         2773
 1390      757.476         3715
 1391      757.827         4948
 1392      758.178         6185
 1393      758.529         6989
 1394      758.879         7442
 1395       759.23         7812
 1396      759.581         7688
 1397      759.931         6529
 1398      760.281         4752
 1399      760.631         3289
 1400      760.981         2378
 1401      761.331         1807
 1402      761.681         1441
 1403       762.03         1218
 1404      762.379         1092
 1405      762.729         1010
 1406      763.078          958
 1407      763.427          933
 1408      763.776          913
 1409      764.124          888
 1410      764.473          879
 1411      764.821          874
 1412      765.169          865
 1413      765.517          876
 1414      765.865          916
 1415      766.213          995
 1416      766.561         1133
 1417      766.909         1352
 1418      767.256         1606
 1419      767.603         1828
 1420       767.95         1986
 1421      768.297         2045
 1422      768.644         1985
 1423      768.991         1828
 1424      769.337         1591
 1425      769.684         1340
 1426       770.03         1143
 1427      770.376         1023
 1428      770.722          946
 1429      771.068          902
 1430      771.414          880
 1431      771.759          861
 1432      772.105          854
 1433       772.45          854
 1434      772.795          848
 1435       773.14          846
 1436      773.485          847
 1437       773.83          845
 1438      774.174          846
 1439      774.519          847
 1440      774.863          848
 1441      775.207          848
 1442      775.551          844
 1443      775.895          834
 1444      776.239          825
 1445      776.582          824
 1446      776.926          824
 1447      777.269          822
 1448      777.612          828
 1449      777.955          829
 1450      778.298          841
 1451      778.641          853
 1452      778.983          841
 1453      779.326          825
 1454      779.668          814
 1455       780.01          821
 1456      780.352          824
 1457      780.694          832
 1458      781.036          837
 1459      781.377          840
 1460      781.719          835
 1461       782.06          836
 1462      782.401          844
 1463      782.742          876
 1464      783.083          946
 1465      783.424         1056
 1466      783.764         1175
 1467      784.105         1269
 1468      784.445         1314
 1469      784.785         1325
 1470      785.125         1284
 1471      785.465         1176
 1472      785.805         1061
 1473      786.144          977
 1474      786.484          921
 1475      786.823          880
 1476      787.162          858
 1477      787.501          842
 1478       787.84          833
 1479      788.178          828
 1480      788.517          830
 1481      788.855          831
 1482      789.194          832
 1483      789.532          839
 1484       789.87          844
 1485      790.208          853
 1486      790.545          858
 1487      790.883          865
 1488       791.22          870
 1489      791.557          865
 1490      791.894          860
 1491      792.231          850
 1492      792.568          835
 1493      792.905          825
 1494      793.241          827
 1495      793.578          837
 1496      793.914          839
 1497       794.25          830
 1498      794.586          823
 1499      794.922          825
 1500      795.257          820
 1501      795.593          824
 1502      795.928          836
 1503      796.263          839
 1504      796.598          843
 1505      796.933          843
 1506      797.268          841
 1507      797.603          834
 1508      797.937          824
 1509      798.271          821
 1510      798.606          820
 1511       798.94          824
 1512      799.274          828
 1513      799.607          831
 1514      799.941          827
 1515      800.274          831
 1516      800.608          839
 1517      800.941          844
 1518      801.274          842
 1519      801.607          843
 1520      801.939          849
 1521      802.272          848
 1522      802.604          846
 1523      802.936          853
 1524      803.269          884
 1525      803.601          937
 1526      803.932         1000
 1527      804.264         1062
 1528      804.596         1102
 1529      804.927         1118
 1530      805.258         1105
 1531      805.589         1066
 1532       805.92         1002
 1533      806.251          944
 1534      806.582          897
 1535      806.912          890
 1536      807.242          928
 1537      807.573         1009
 1538      807.903         1178
 1539      808.232         1455
 1540      808.562         1895
 1541      808.892         2496
 1542      809.221         3116
 1543      809.551         3617
 1544       809.88         3842
 1545      810.209         3640
 1546      810.538         3179
 1547      810.866         2645
 1548      811.195         2114
 1549      811.523         1673
 1550      811.851         1368
 1551       812.18         1177
 1552      812.507         1057
 1553      812.835          976
 1554      813.163          929
 1555       813.49          894
 1556      813.818          865
 1557      814.145          853
 1558      814.472          858
 1559      814.799          849
 1560      815.126          855
 1561      815.452          864
 1562      815.779          883
 1563      816.105          942
 1564      816.431         1045
 1565      816.757         1164
 1566      817.083         1273
 1567      817.409         1330
 1568      817.734         1340
 1569       818.06         1293
 1570      818.385         1190
 1571       818.71         1081
 1572      819.035          993
 1573       819.36          934
 1574      819.685          894
 1575      820.009          868
 1576      820.333          851
 1577      820.658          839
 1578      820.982          835
 1579      821.305          841
 1580      821.629          844
 1581      821.953          847
 1582      822.276          850
 1583        822.6          845
 1584      822.923          851
 1585      823.246          886
 1586      823.569          947
 1587      823.891         1036
 1588      824.214         1131
 1589      824.536         1192
 1590      824.858         1208
 1591       825.18         1196
 1592      825.502         1154
 1593      825.824         1107
 1594      826.146         1062
 1595      826.467         1045
 1596      826.789         1069
 1597       827.11         1132
 1598      827.431         1223
 1599      827.752         1312
 1600      828.072         1376
 1601      828.393         1381
 1602      828.713         1305
 1603      829.034         1173
 1604      829.354         1053
 1605      829.674          976
 1606      829.993          926
 1607      830.313          888
 1608      830.633          868
 1609      830.952          855
 1610      831.271          844
 1611       831.59          833
 1612      831.909          829
 1613      832.228          832
 1614      832.546          820
 1615      832.865          813
 1616      833.183          811
 1617      833.501          817
 1618      833.819          815
 1619      834.137          813
 1620      834.455          810
 1621      834.772          813
 1622      835.089          814
 1623      835.407          809
 1624      835.724          813
 1625       836.04          820
 1626      836.357          818
 1627      836.674          815
 1628       836.99          816
 1629      837.306          855
 1630      837.623          871
 1631      837.939          842
 1632      838.254          835
 1633       838.57          836
 1634      838.886          832
 1635      839.201          820
 1636      839.516          817
 1637      839.831          826
 1638      840.146          820
 1639      840.461          819
 1640      840.775          823
 1641       841.09          816
 1642      841.404          823
 1643      841.718          836
 1644      842.032          833
 1645      842.346          818
 1646      842.659          809
 1647      842.973          817
 1648      843.286          824
 1649      843.599          832
 1650      843.912          827
 1651      844.225          820
 1652      844.538          822
 1653      844.851          822
 1654      845.163          824
 1655      845.475          822
 1656      845.787          817
 1657      846.099          819
 1658      846.411          824
 1659      846.723          817
 1660      847.034          812
 1661      847.345          804
 1662      847.657          807
 1663      847.968          817
 1664      848.278          813
 1665      848.589          808
 1666        848.9          808
 1667       849.21          810
 1668       849.52          809
 1669       849.83          809
 1670       850.14          808
 1671       850.45          811
 1672      850.759          806
 1673      851.069          799
 1674      851.378          807
 1675      851.687          809
 1676      851.996          810
 1677      852.305          815
 1678      852.614          813
 1679      852.922          807
 1680       853.23          802
 1681      853.539          801
 1682      853.847          800
 1683      854.154          801
 1684      854.462          807
 1685       854.77          806
 1686      855.077          801
 1687      855.384          805
 1688      855.691          805
 1689      855.998          808
 1690      856.305          813
 1691      856.612          808
 1692      856.918          812
 1693      857.224          823
 1694       857.53          820
 1695      857.836          818
 1696      858.142          817
 1697      858.448          809
 1698      858.753          804
 1699      859.059          806
 1700      859.364          817
 1701      859.669          812
 1702      859.974          801
 1703      860.278          815
 1704      860.583          827
 1705      860.887          824
 1706      861.192          830
 1707      861.496          835
 1708        861.8          826
 1709      862.103          820
 1710      862.407          817
 1711       862.71          822
 1712      863.014          821
 1713      863.317          815
 1714       863.62          824
 1715      863.922          823
 1716      864.225          821
 1717      864.527          826
 1718       864.83          823
 1719      865.132          820
 1720      865.434          815
 1721      865.736          817
 1722      866.037          814
 1723      866.339          816
 1724       866.64          821
 1725      866.941          820
 1726      867.242          823
 1727      867.543          815
 1728      867.844          816
 1729      868.145          816
 1730      868.445          816
 1731      868.745          817
 1732      869.045          817
 1733      869.345          814
 1734      869.645          812
 1735      869.944          814
 1736      870.244          809
 1737      870.543          806
 1738      870.842          808
 1739      871.141          813
 1740       871.44          819
 1741      871.739          819
 1742      872.037          809
 1743      872.335          799
 1744      872.634          801
 1745      872.931          814
 1746      873.229          824
 1747      873.527          824
 1748      873.824          819
 1749      874.122          815
 1750      874.419          813
 1751      874.716          811
 1752      875.013          811
 1753      875.309          808
 1754      875.606          804
 1755      875.902          805
 1756      876.199          802
 1757      876.495          805
 1758       876.79          801
 1759      877.086          804
 1760      877.382          809
 1761      877.677          802
 1762      877.972          802
 1763      878.267          806
 1764      878.562          812
 1765      878.857          813
 1766      879.152          815
 1767      879.446          819
 1768       879.74          827
 1769      880.034          819
 1770      880.328          804
 1771      880.622          802
 1772      880.916          805
 1773      881.209          813
 1774      881.502          813
 1775      881.795          812
 1776      882.088          813
 1777      882.381          810
 1778      882.674          805
 1779      882.966          808
 1780      883.258          817
 1781      883.551          826
 1782      883.843          815
 1783      884.134          824
 1784      884.426          833
 1785      884.717          825
 1786      885.009          824
 1787        885.3          817
 1788      885.591          807
 1789      885.882          807
 1790      886.172          807
 1791      886.463          812
 1792      886.753          816
 1793      887.043          821
 1794      887.333          835
 1795      887.623          837
 1796      887.913          829
 1797      888.202          826
 1798      888.492          832
 1799      888.781          832
 1800       889.07          832
 1801      889.359          839
 1802      889.647          833
 1803      889.936          821
 1804      890.224          824
 1805      890.512          843
 1806        890.8          853
 1807      891.088          852
 1808      891.376          847
 1809      891.663          836
 1810      891.951          834
 1811      892.238          837
 1812      892.525          836
 1813      892.812          835
 1814      893.099          837
 1815      893.385          834
 1816      893.671          820
 1817      893.958          820
 1818      894.244          824
 1819       894.53          825
 1820      894.815          819
 1821      895.101          814
 1822      895.386          805
 1823      895.671          806
 1824      895.956          813
 1825      896.241          823
 1826      896.526          821
 1827       896.81          815
 1828      897.095          815
 1829      897.379          815
 1830      897.663          809
 1831      897.947          807
 1832      898.231          811
 1833      898.514          819
 1834      898.798          817
 1835      899.081          813
 1836      899.364          812
 1837      899.647          816
 1838      899.929          815
 1839      900.212          808
 1840      900.494          809
 1841      900.776          818
 1842      901.058          827
 1843       901.34          829
 1844      901.622          823
 1845      901.904          815
 1846      902.185          813
 1847      902.466          819
 1848      902.747          820
 1849      903.028          821
 1850      903.309          817
 1851      903.589          814
 1852       903.87          811
 1853       904.15          803
 1854       904.43          798
 1855       904.71          805
 1856      904.989          816
 1857      905.269          817
 1858      905.548          808
 1859      905.827          808
 1860      906.106          815
 1861      906.385          817
 1862      906.664          819
 1863      906.942          824
 1864      907.221          815
 1865      907.499          812
 1866      907.777          808
 1867      908.055          811
 1868      908.332          818
 1869       908.61          832
 1870      908.887          837
 1871      909.164          822
 1872      909.441          817
 1873      909.718          812
 1874      909.995          809
 1875      910.271          807
 1876      910.548          805
 1877      910.824          804
 1878        911.1          799
 1879      911.375          794
 1880      911.651          800
 1881      911.927          813
 1882      912.202          820
 1883      912.477          817
 1884      912.752          812
 1885      913.027          808
 1886      913.301          812
 1887      913.576          824
 1888       913.85          825
 1889      914.124          815
 1890      914.398          813
 1891      914.672          811
 1892      914.945          811
 1893      915.219          818
 1894      915.492          818
 1895      915.765          821
 1896      916.038          821
 1897      916.311          813
 1898      916.583          808
 1899      916.856          806
 1900      917.128          813
 1901        917.4          821
 1902      917.672          821
 1903      917.944          821
 1904      918.215          817
 1905      918.486          818
 1906      918.758          821
 1907      919.029          821
 1908      919.299          815
 1909       919.57          816
 1910      919.841          817
 1911      920.111          815
 1912      920.381          815
 1913      920.651          826
 1914      920.921          829
 1915      921.191          821
 1916       921.46          821
 1917      921.729          820
 1918      921.999          820
 1919      922.268          823
 1920      922.536          824
 1921      922.805          821
 1922      923.073          812
 1923      923.342          814
 1924       923.61          820
 1925      923.878          820
 1926      924.145          821
 1927      924.413          817
 1928       924.68          820
 1929      924.948          825
 1930      925.215          821
 1931      925.482          815
 1932      925.748          813
 1933      926.015          818
 1934      926.281          807
 1935      926.547          803
 1936      926.813          807
 1937      927.079          814
 1938      927.345          815
 1939       927.61          816
 1940      927.876          814
 1941      928.141          818
 1942      928.406          814
 1943      928.671          813
 1944      928.935          815
 1945        929.2          814
 1946      929.464          809
 1947      929.728          822
 1948      929.992          834
 1949      930.256          833
 1950       930.52          823
 1951      930.783          815
 1952      931.046          814
 1953      931.309          817
 1954      931.572          823
 1955      931.835          817
 1956      932.097          809
 1957       932.36          814
 1958      932.622          823
 1959      932.884          824
 1960      933.146          831
 1961      933.408          836
 1962      933.669          826
 1963       933.93          817
 1964      934.192          821
 1965      934.453          828
 1966      934.713          828
 1967      934.974          823
 1968      935.234          820
 1969      935.495          822
 1970      935.755          817
 1971      936.015          808
 1972      936.274          809
 1973      936.534          811
 1974      936.793          810
 1975      937.053          816
 1976      937.312          822
 1977      937.571          815
 1978      937.829          815
 1979      938.088          825
 1980      938.346          823
 1981      938.604          816
 1982      938.862          814
 1983       939.12          814
 1984      939.378          815
 1985      939.635          815
 1986      939.893          814
 1987       940.15          819
 1988      940.407          823
 1989      940.663          829
 1990       940.92          824
 1991      941.176          809
 1992      941.433          809
 1993      941.689          817
 1994      941.944          820
 1995        942.2          831
 1996      942.456          833
 1997      942.711          823
 1998      942.966          816
 1999      943.221          811
 2000      943.476          816
 2001      943.731          826
 2002      943.985          834
 2003      944.239          830
 2004      944.493          818
 2005      944.747          809
 2006      945.001          800
 2007      945.255          805
 2008      945.508          813
 2009      945.761          816
 2010      946.014          820
 2011      946.267          819
 2012       946.52          815
 2013      946.772          816
 2014      947.025          817
 2015      947.277          816
 2016      947.529          817
 2017      947.781          821
 2018      948.032          814
 2019      948.284          807
 2020      948.535          811
 2021      948.786          814
 2022      949.037          817
 2023      949.288          822
 2024      949.538          819
 2025      949.789          818
 2026      950.039          814
 2027      950.289          809
 2028      950.539          808
 2029      950.788          814
 2030      951.038          824
 2031      951.287          819
 2032      951.536          812
 2033      951.785          811
 2034      952.034          816
 2035      952.282          815
 2036      952.531          812
 2037      952.779          813
 2038      953.027          818
 2039      953.275          818
 2040      953.523          816
 2041       953.77          821
 2042      954.017          820
 2043      954.264          813
 2044      954.511          810
 2045      954.758          812
 2046      955.005          812
 2047      955.251          801
